File: exp_dat/old/exp_2013_11_11/00pct_180L.uxd
; (content of file C:\DIFFDAT1\GIFT\MDL\Seawoong Lee\20131104_MV8\equal_area_maxkhi080_n8_2th40_130_x00y25_180L_2.raw)
_FILEVERSION = 3
_SAMPLE =
_+SAMPLE =
_SITE = Korea
_USER = Admin
_GONIOMETER_CODE = 20
; Goniometer : D8 theta/2theta, stage : Unknown
_SAMPLE_CHANGER_CODE = 0
_ATTACHMENTS_CODE = 0
_GONIOMETER_RADIUS = 300
_FIXED_DIVSLIT = 1
_FIXED_SAMPLESLIT = 0
_SOLLER_SLITS = 2
_FIXED_DETSLIT = 0.1
_MONOCHROMATOR = 0
; Incident beam monochromator : None
_SOLLER_SLITS_2 = 2
_THIN_FILM = N
_BETA_FILTER = Y
_FIXED_ANTISLIT = 0.6
_ANALYZER_CODE = 0
; Received beam analyzer : None
_DATEMEASURED = "09-Nov-2013 03:26:58"
_WL_UNIT = A
_WL1 = 1.78897
_WL2 = 1.79285
_WL3 = 1.62079
_WLRATIO = 0.5
_ANODE = Co
_V4_INF_CREATOR = XRDWizard
_V4_INF_CREATOR_VERSION = V2.9.0.22
_V4_INF_WIZARD_VERSION = V2.9.0.22
_V4_INF_WIZARD_ADDINS = V2.9.0.22
_V4_INF_WIZARD_DOCTYPE = XRD
_V4_INF_OSUSER = Postech
_V4_INF_USER = Admin
_V4_INF_SITE = Korea

; Data for range 1
_DRIVE = COUPLED
_STEPTIME = 0.2
_STEPSIZE = 0.1
_STEPMODE = C
_START = 40
_THETA = 20
_2THETA = 40
_KHI = 0
_PHI = 0
_X = 0
_Y = 25
_Z = 0
_DETECTOR = 1
; Detector type : Scintillation counter
_HV = 687
_GAIN = 80
_LLD = 0.69
_ULD = 1.866
_DETECTORSLIT = unkn
_AUX1 = 0
_AUX2 = 0
_AUX3 = 0
_TIMESTARTED = 28
_TEMP_RATE = -1
_TEMP_DELAY = -1
_KV = 35
_MA = 40
_RANGE_WL = 1.78897
_3DPLANE = 0
_V4_ADDITIONALDETECTOR = 0
_V4_D8_DIBNUM = 1
_V4_DETECTORNAME = "Detector 1"
_V4_TTLDETECTOR = None
_V4_DETECTORTYPE = 1
_V4_DETECTORFLAGS = 524545
_V4_DETECTORHV = 687
_V4_DETECTORGAIN = 80
_V4_DETECTORLLD1 = 0.69
_V4_DETECTORWW1 = 1.176
_V4_DETECTORLLD2 = 0
_V4_DETECTORWW2 = 0
_V4_DETECTORPS = 0
_V4_DETECTORDT = 0
_V4_DETECTORPILEUPTIME = 0
_V4_COUNTERS_MASK = 1
_V4_DRIVES_MASK = 0
_V4_ENCODERS_MASK = 0
_2THETACOUNTS = 1
; 2THETA  Cnt1_D1
  40.0000        507
  40.4000        522
  40.8000        594
  41.2000        529
  41.6000        517
  42.0000        505
  42.4000        514
  42.8000        536
  43.2000        522
  43.6000        518
  44.0000        495
  44.4000        510
  44.8000        503
  45.2000        497
  45.6000        494
  46.0000        514
  46.4000        504
  46.8000        481
  47.2000        562
  47.6000        513
  48.0000        522
  48.4000        507
  48.8000        494
  49.2000        475
  49.6000        525
  50.0000        519
  50.4000        537
  50.8000        548
  51.2000        544
  51.6000        755
  52.0000       1296
  52.4000       1267
  52.8000        589
  53.2000        546
  53.6000        521
  54.0000        491
  54.4000        493
  54.8000        520
  55.2000        482
  55.6000        516
  56.0000        529
  56.4000        513
  56.8000        493
  57.2000        530
  57.6000        482
  58.0000        523
  58.4000        518
  58.8000        481
  59.2000        537
  59.6000        542
  60.0000        536
  60.4000        500
  60.8000        455
  61.2000        549
  61.6000        501
  62.0000        492
  62.4000        530
  62.8000        491
  63.2000        501
  63.6000        502
  64.0000        471
  64.4000        504
  64.8000        472
  65.2000        516
  65.6000        522
  66.0000        507
  66.4000        522
  66.8000        477
  67.2000        503
  67.6000        509
  68.0000        518
  68.4000        534
  68.8000        509
  69.2000        521
  69.6000        540
  70.0000        552
  70.4000        500
  70.8000        500
  71.2000        512
  71.6000        514
  72.0000        473
  72.4000        547
  72.8000        526
  73.2000        504
  73.6000        493
  74.0000        527
  74.4000        499
  74.8000        494
  75.2000        498
  75.6000        513
  76.0000        505
  76.4000        764
  76.8000       1010
  77.2000        981
  77.6000        548
  78.0000        487
  78.4000        509
  78.8000        488
  79.2000        481
  79.6000        498
  80.0000        509
  80.4000        487
  80.8000        498
  81.2000        516
  81.6000        538
  82.0000        500
  82.4000        539
  82.8000        496
  83.2000        524
  83.6000        476
  84.0000        493
  84.4000        548
  84.8000        515
  85.2000        485
  85.6000        520
  86.0000        496
  86.4000        518
  86.8000        508
  87.2000        535
  87.6000        503
  88.0000        508
  88.4000        515
  88.8000        592
  89.2000        629
  89.6000        632
  90.0000        542
  90.4000        495
  90.8000        516
  91.2000        488
  91.6000        507
  92.0000        482
  92.4000        519
  92.8000        525
  93.2000        560
  93.6000        505
  94.0000        521
  94.4000        508
  94.8000        538
  95.2000        493
  95.6000        517
  96.0000        511
  96.4000        461
  96.8000        517
  97.2000        508
  97.6000        530
  98.0000        485
  98.4000        502
  98.8000        843
  99.2000       1543
  99.6000       1243
 100.0000        686
 100.4000        512
 100.8000        468
 101.2000        481
 101.6000        503
 102.0000        496
 102.4000        512
 102.8000        519
 103.2000        502
 103.6000        514
 104.0000        512
 104.4000        503
 104.8000        527
 105.2000        492
 105.6000        475
 106.0000        502
 106.4000        519
 106.8000        526
 107.2000        470
 107.6000        532
 108.0000        500
 108.4000        534
 108.8000        534
 109.2000        542
 109.6000        495
 110.0000        490
 110.4000        557
 110.8000        580
 111.2000        583
 111.6000        530
 112.0000        535
 112.4000        490
 112.8000        488
 113.2000        479
 113.6000        492
 114.0000        509
 114.4000        493
 114.8000        474
 115.2000        522
 115.6000        496
 116.0000        528
 116.4000        551
 116.8000        528
 117.2000        502
 117.6000        508
 118.0000        528
 118.4000        483
 118.8000        503
 119.2000        488
 119.6000        483
 120.0000        489
 120.4000        477
 120.8000        467
 121.2000        529
 121.6000        522
 122.0000        506
 122.4000        553
 122.8000        562
 123.2000        619
 123.6000        584
 124.0000        528
 124.4000        476
 124.8000        490
 125.2000        513
 125.6000        487
 126.0000        541
 126.4000        515
 126.8000        497
 127.2000        505
 127.6000        549
 128.0000        485
 128.4000        482
 128.8000        483
 129.2000        568
 129.6000        527
 130.0000        545

; Data for range 2
_DRIVE = COUPLED
_STEPTIME = 0.2
_STEPSIZE = 0.1
_STEPMODE = C
_START = 40
_THETA = 20
_2THETA = 40
_KHI = 10.5
_PHI = 60
_X = 0
_Y = 25
_Z = 0
_DETECTOR = 1
; Detector type : Scintillation counter
_HV = 687
_GAIN = 80
_LLD = 0.69
_ULD = 1.866
_DETECTORSLIT = unkn
_AUX1 = 0
_AUX2 = 0
_AUX3 = 0
_TIMESTARTED = 225
_TEMP_RATE = -1
_TEMP_DELAY = -1
_KV = 35
_MA = 40
_RANGE_WL = 1.78897
_3DPLANE = 0
_V4_ADDITIONALDETECTOR = 0
_V4_D8_DIBNUM = 1
_V4_DETECTORNAME = "Detector 1"
_V4_TTLDETECTOR = None
_V4_DETECTORTYPE = 1
_V4_DETECTORFLAGS = 524545
_V4_DETECTORHV = 687
_V4_DETECTORGAIN = 80
_V4_DETECTORLLD1 = 0.69
_V4_DETECTORWW1 = 1.176
_V4_DETECTORLLD2 = 0
_V4_DETECTORWW2 = 0
_V4_DETECTORPS = 0
_V4_DETECTORDT = 0
_V4_DETECTORPILEUPTIME = 0
_V4_COUNTERS_MASK = 1
_V4_DRIVES_MASK = 0
_V4_ENCODERS_MASK = 0
_2THETACOUNTS = 1
; 2THETA  Cnt1_D1
  40.0000        527
  40.4000        504
  40.8000        532
  41.2000        545
  41.6000        582
  42.0000        521
  42.4000        551
  42.8000        499
  43.2000        495
  43.6000        524
  44.0000        543
  44.4000        486
  44.8000        515
  45.2000        542
  45.6000        532
  46.0000        505
  46.4000        559
  46.8000        510
  47.2000        508
  47.6000        516
  48.0000        563
  48.4000        537
  48.8000        493
  49.2000        558
  49.6000        505
  50.0000        536
  50.4000        588
  50.8000        592
  51.2000        580
  51.6000        768
  52.0000       1516
  52.4000       1464
  52.8000        626
  53.2000        532
  53.6000        513
  54.0000        528
  54.4000        523
  54.8000        520
  55.2000        515
  55.6000        510
  56.0000        512
  56.4000        498
  56.8000        495
  57.2000        505
  57.6000        494
  58.0000        506
  58.4000        494
  58.8000        525
  59.2000        529
  59.6000        550
  60.0000        535
  60.4000        537
  60.8000        486
  61.2000        539
  61.6000        516
  62.0000        495
  62.4000        485
  62.8000        494
  63.2000        550
  63.6000        526
  64.0000        530
  64.4000        503
  64.8000        483
  65.2000        501
  65.6000        470
  66.0000        488
  66.4000        516
  66.8000        505
  67.2000        476
  67.6000        495
  68.0000        468
  68.4000        495
  68.8000        544
  69.2000        481
  69.6000        502
  70.0000        550
  70.4000        507
  70.8000        562
  71.2000        513
  71.6000        511
  72.0000        524
  72.4000        514
  72.8000        503
  73.2000        503
  73.6000        498
  74.0000        474
  74.4000        514
  74.8000        509
  75.2000        471
  75.6000        510
  76.0000        556
  76.4000        687
  76.8000        896
  77.2000        877
  77.6000        580
  78.0000        509
  78.4000        505
  78.8000        474
  79.2000        509
  79.6000        538
  80.0000        512
  80.4000        474
  80.8000        504
  81.2000        479
  81.6000        511
  82.0000        552
  82.4000        516
  82.8000        501
  83.2000        531
  83.6000        496
  84.0000        490
  84.4000        501
  84.8000        462
  85.2000        506
  85.6000        552
  86.0000        535
  86.4000        540
  86.8000        491
  87.2000        454
  87.6000        508
  88.0000        506
  88.4000        556
  88.8000        577
  89.2000        612
  89.6000        547
  90.0000        501
  90.4000        501
  90.8000        521
  91.2000        503
  91.6000        540
  92.0000        513
  92.4000        481
  92.8000        516
  93.2000        505
  93.6000        500
  94.0000        510
  94.4000        520
  94.8000        527
  95.2000        509
  95.6000        501
  96.0000        525
  96.4000        493
  96.8000        547
  97.2000        528
  97.6000        501
  98.0000        527
  98.4000        513
  98.8000        806
  99.2000       1197
  99.6000       1069
 100.0000        603
 100.4000        527
 100.8000        551
 101.2000        534
 101.6000        482
 102.0000        557
 102.4000        505
 102.8000        506
 103.2000        501
 103.6000        510
 104.0000        501
 104.4000        526
 104.8000        526
 105.2000        534
 105.6000        490
 106.0000        491
 106.4000        522
 106.8000        507
 107.2000        485
 107.6000        513
 108.0000        514
 108.4000        505
 108.8000        518
 109.2000        495
 109.6000        530
 110.0000        517
 110.4000        545
 110.8000        621
 111.2000        606
 111.6000        533
 112.0000        481
 112.4000        504
 112.8000        514
 113.2000        560
 113.6000        493
 114.0000        484
 114.4000        502
 114.8000        512
 115.2000        486
 115.6000        459
 116.0000        478
 116.4000        527
 116.8000        466
 117.2000        546
 117.6000        550
 118.0000        510
 118.4000        491
 118.8000        521
 119.2000        545
 119.6000        490
 120.0000        480
 120.4000        531
 120.8000        479
 121.2000        516
 121.6000        512
 122.0000        495
 122.4000        546
 122.8000        560
 123.2000        583
 123.6000        596
 124.0000        560
 124.4000        467
 124.8000        493
 125.2000        511
 125.6000        537
 126.0000        519
 126.4000        499
 126.8000        531
 127.2000        514
 127.6000        529
 128.0000        517
 128.4000        509
 128.8000        515
 129.2000        479
 129.6000        532
 130.0000        509

; Data for range 3
_DRIVE = COUPLED
_STEPTIME = 0.2
_STEPSIZE = 0.1
_STEPMODE = C
_START = 40
_THETA = 20
_2THETA = 40
_KHI = 18.3
_PHI = 90
_X = 0
_Y = 25
_Z = 0
_DETECTOR = 1
; Detector type : Scintillation counter
_HV = 687
_GAIN = 80
_LLD = 0.69
_ULD = 1.866
_DETECTORSLIT = unkn
_AUX1 = 0
_AUX2 = 0
_AUX3 = 0
_TIMESTARTED = 422
_TEMP_RATE = -1
_TEMP_DELAY = -1
_KV = 35
_MA = 40
_RANGE_WL = 1.78897
_3DPLANE = 0
_V4_ADDITIONALDETECTOR = 0
_V4_D8_DIBNUM = 1
_V4_DETECTORNAME = "Detector 1"
_V4_TTLDETECTOR = None
_V4_DETECTORTYPE = 1
_V4_DETECTORFLAGS = 524545
_V4_DETECTORHV = 687
_V4_DETECTORGAIN = 80
_V4_DETECTORLLD1 = 0.69
_V4_DETECTORWW1 = 1.176
_V4_DETECTORLLD2 = 0
_V4_DETECTORWW2 = 0
_V4_DETECTORPS = 0
_V4_DETECTORDT = 0
_V4_DETECTORPILEUPTIME = 0
_V4_COUNTERS_MASK = 1
_V4_DRIVES_MASK = 0
_V4_ENCODERS_MASK = 0
_2THETACOUNTS = 1
; 2THETA  Cnt1_D1
  40.0000        538
  40.4000        487
  40.8000        515
  41.2000        501
  41.6000        477
  42.0000        526
  42.4000        520
  42.8000        550
  43.2000        529
  43.6000        523
  44.0000        526
  44.4000        537
  44.8000        458
  45.2000        564
  45.6000        493
  46.0000        490
  46.4000        545
  46.8000        516
  47.2000        558
  47.6000        476
  48.0000        530
  48.4000        507
  48.8000        486
  49.2000        470
  49.6000        530
  50.0000        496
  50.4000        500
  50.8000        580
  51.2000        629
  51.6000        807
  52.0000       1300
  52.4000       1232
  52.8000        564
  53.2000        504
  53.6000        545
  54.0000        502
  54.4000        479
  54.8000        513
  55.2000        551
  55.6000        482
  56.0000        503
  56.4000        519
  56.8000        510
  57.2000        484
  57.6000        526
  58.0000        540
  58.4000        487
  58.8000        572
  59.2000        543
  59.6000        537
  60.0000        543
  60.4000        523
  60.8000        549
  61.2000        502
  61.6000        509
  62.0000        550
  62.4000        529
  62.8000        543
  63.2000        515
  63.6000        495
  64.0000        470
  64.4000        496
  64.8000        536
  65.2000        545
  65.6000        508
  66.0000        547
  66.4000        496
  66.8000        517
  67.2000        532
  67.6000        463
  68.0000        491
  68.4000        499
  68.8000        481
  69.2000        468
  69.6000        525
  70.0000        527
  70.4000        514
  70.8000        494
  71.2000        510
  71.6000        507
  72.0000        525
  72.4000        510
  72.8000        495
  73.2000        509
  73.6000        501
  74.0000        509
  74.4000        516
  74.8000        479
  75.2000        526
  75.6000        511
  76.0000        483
  76.4000        722
  76.8000       1088
  77.2000        982
  77.6000        588
  78.0000        494
  78.4000        451
  78.8000        536
  79.2000        507
  79.6000        506
  80.0000        498
  80.4000        548
  80.8000        506
  81.2000        491
  81.6000        529
  82.0000        514
  82.4000        516
  82.8000        502
  83.2000        538
  83.6000        514
  84.0000        487
  84.4000        523
  84.8000        537
  85.2000        508
  85.6000        466
  86.0000        534
  86.4000        536
  86.8000        504
  87.2000        469
  87.6000        478
  88.0000        502
  88.4000        504
  88.8000        550
  89.2000        596
  89.6000        550
  90.0000        497
  90.4000        538
  90.8000        477
  91.2000        474
  91.6000        519
  92.0000        488
  92.4000        512
  92.8000        491
  93.2000        499
  93.6000        521
  94.0000        511
  94.4000        523
  94.8000        534
  95.2000        491
  95.6000        456
  96.0000        510
  96.4000        503
  96.8000        472
  97.2000        494
  97.6000        490
  98.0000        475
  98.4000        531
  98.8000        799
  99.2000       1250
  99.6000       1073
 100.0000        670
 100.4000        493
 100.8000        505
 101.2000        505
 101.6000        515
 102.0000        510
 102.4000        492
 102.8000        513
 103.2000        486
 103.6000        507
 104.0000        494
 104.4000        479
 104.8000        528
 105.2000        547
 105.6000        509
 106.0000        508
 106.4000        497
 106.8000        517
 107.2000        488
 107.6000        485
 108.0000        483
 108.4000        500
 108.8000        501
 109.2000        462
 109.6000        546
 110.0000        464
 110.4000        543
 110.8000        607
 111.2000        564
 111.6000        528
 112.0000        550
 112.4000        499
 112.8000        527
 113.2000        497
 113.6000        480
 114.0000        530
 114.4000        496
 114.8000        521
 115.2000        491
 115.6000        524
 116.0000        523
 116.4000        502
 116.8000        512
 117.2000        479
 117.6000        552
 118.0000        532
 118.4000        545
 118.8000        478
 119.2000        473
 119.6000        513
 120.0000        498
 120.4000        535
 120.8000        488
 121.2000        501
 121.6000        532
[...]
  72.4000        327
  72.8000        313
  73.2000        325
  73.6000        323
  74.0000        342
  74.4000        331
  74.8000        364
  75.2000        389
  75.6000        378
  76.0000        393
  76.4000        420
  76.8000        428
  77.2000        487
  77.6000        426
  78.0000        384
  78.4000        342
  78.8000        353
  79.2000        349
  79.6000        363
  80.0000        371
  80.4000        336
  80.8000        392
  81.2000        372
  81.6000        321
  82.0000        366
  82.4000        381
  82.8000        379
  83.2000        350
  83.6000        365
  84.0000        336
  84.4000        409
  84.8000        391
  85.2000        408
  85.6000        423
  86.0000        370
  86.4000        350
  86.8000        341
  87.2000        364
  87.6000        386
  88.0000        371
  88.4000        359
  88.8000        364
  89.2000        370
  89.6000        396
  90.0000        380
  90.4000        364
  90.8000        362
  91.2000        379
  91.6000        379
  92.0000        428
  92.4000        394
  92.8000        382
  93.2000        363
  93.6000        390
  94.0000        372
  94.4000        379
  94.8000        387
  95.2000        372
  95.6000        398
  96.0000        364
  96.4000        374
  96.8000        362
  97.2000        376
  97.6000        388
  98.0000        449
  98.4000        490
  98.8000        516
  99.2000        553
  99.6000        598
 100.0000        496
 100.4000        458
 100.8000        400
 101.2000        418
 101.6000        359
 102.0000        351
 102.4000        377
 102.8000        362
 103.2000        373
 103.6000        412
 104.0000        379
 104.4000        394
 104.8000        401
 105.2000        408
 105.6000        413
 106.0000        398
 106.4000        412
 106.8000        369
 107.2000        421
 107.6000        371
 108.0000        384
 108.4000        392
 108.8000        437
 109.2000        450
 109.6000        400
 110.0000        421
 110.4000        446
 110.8000        450
 111.2000        432
 111.6000        437
 112.0000        411
 112.4000        389
 112.8000        398
 113.2000        420
 113.6000        429
 114.0000        387
 114.4000        380
 114.8000        403
 115.2000        419
 115.6000        423
 116.0000        421
 116.4000        426
 116.8000        439
 117.2000        408
 117.6000        419
 118.0000        410
 118.4000        452
 118.8000        458
 119.2000        427
 119.6000        436
 120.0000        379
 120.4000        410
 120.8000        419
 121.2000        437
 121.6000        419
 122.0000        429
 122.4000        457
 122.8000        505
 123.2000        525
 123.6000        552
 124.0000        554
 124.4000        459
 124.8000        445
 125.2000        401
 125.6000        431
 126.0000        447
 126.4000        458
 126.8000        402
 127.2000        450
 127.6000        403
 128.0000        437
 128.4000        383
 128.8000        447
 129.2000        427
 129.6000        419
 130.0000        441

; Data for range 53
_DRIVE = COUPLED
_STEPTIME = 0.2
_STEPSIZE = 0.1
_STEPMODE = C
_START = 40
_THETA = 20
_2THETA = 40
_KHI = 80
_PHI = 0
_X = 0
_Y = 25
_Z = 0
_DETECTOR = 1
; Detector type : Scintillation counter
_HV = 687
_GAIN = 80
_LLD = 0.69
_ULD = 1.866
_DETECTORSLIT = unkn
_AUX1 = 0
_AUX2 = 0
_AUX3 = 0
_TIMESTARTED = 1.03e+004
_TEMP_RATE = -1
_TEMP_DELAY = -1
_KV = 35
_MA = 40
_RANGE_WL = 1.78897
_3DPLANE = 0
_V4_ADDITIONALDETECTOR = 0
_V4_D8_DIBNUM = 1
_V4_DETECTORNAME = "Detector 1"
_V4_TTLDETECTOR = None
_V4_DETECTORTYPE = 1
_V4_DETECTORFLAGS = 524545
_V4_DETECTORHV = 687
_V4_DETECTORGAIN = 80
_V4_DETECTORLLD1 = 0.69
_V4_DETECTORWW1 = 1.176
_V4_DETECTORLLD2 = 0
_V4_DETECTORWW2 = 0
_V4_DETECTORPS = 0
_V4_DETECTORDT = 0
_V4_DETECTORPILEUPTIME = 0
_V4_COUNTERS_MASK = 1
_V4_DRIVES_MASK = 0
_V4_ENCODERS_MASK = 0
_2THETACOUNTS = 1
; 2THETA  Cnt1_D1
  40.0000        165
  40.4000        213
  40.8000        207
  41.2000        208
  41.6000        190
  42.0000        197
  42.4000        226
  42.8000        257
  43.2000        254
  43.6000        260
  44.0000        234
  44.4000        185
  44.8000        224
  45.2000        197
  45.6000        180
  46.0000        213
  46.4000        202
  46.8000        215
  47.2000        233
  47.6000        225
  48.0000        203
  48.4000        199
  48.8000        208
  49.2000        222
  49.6000        223
  50.0000        288
  50.4000        302
  50.8000        367
  51.2000        438
  51.6000        639
  52.0000        799
  52.4000        908
  52.8000        726
  53.2000        533
  53.6000        276
  54.0000        230
  54.4000        249
  54.8000        237
  55.2000        246
  55.6000        234
  56.0000        237
  56.4000        245
  56.8000        238
  57.2000        253
  57.6000        224
  58.0000        242
  58.4000        249
  58.8000        270
  59.2000        290
  59.6000        329
  60.0000        283
  60.4000        260
  60.8000        269
  61.2000        261
  61.6000        246
  62.0000        251
  62.4000        240
  62.8000        254
  63.2000        248
  63.6000        265
  64.0000        238
  64.4000        257
  64.8000        266
  65.2000        301
  65.6000        244
  66.0000        269
  66.4000        284
  66.8000        262
  67.2000        280
  67.6000        279
  68.0000        281
  68.4000        237
  68.8000        241
  69.2000        258
  69.6000        279
  70.0000        247
  70.4000        247
  70.8000        240
  71.2000        259
  71.6000        263
  72.0000        296
  72.4000        246
  72.8000        291
  73.2000        297
  73.6000        265
  74.0000        274
  74.4000        273
  74.8000        291
  75.2000        325
  75.6000        271
  76.0000        342
  76.4000        299
  76.8000        362
  77.2000        359
  77.6000        336
  78.0000        344
  78.4000        303
  78.8000        314
  79.2000        297
  79.6000        257
  80.0000        322
  80.4000        281
  80.8000        296
  81.2000        336
  81.6000        355
  82.0000        341
  82.4000        301
  82.8000        304
  83.2000        278
  83.6000        332
  84.0000        338
  84.4000        323
  84.8000        336
  85.2000        316
  85.6000        334
  86.0000        349
  86.4000        313
  86.8000        351
  87.2000        350
  87.6000        320
  88.0000        352
  88.4000        341
  88.8000        341
  89.2000        327
  89.6000        352
  90.0000        372
  90.4000        338
  90.8000        323
  91.2000        347
  91.6000        372
  92.0000        371
  92.4000        301
  92.8000        338
  93.2000        341
  93.6000        342
  94.0000        351
  94.4000        334
  94.8000        329
  95.2000        352
  95.6000        357
  96.0000        379
  96.4000        348
  96.8000        360
  97.2000        358
  97.6000        400
  98.0000        405
  98.4000        411
  98.8000        522
  99.2000        539
  99.6000        493
 100.0000        490
 100.4000        435
 100.8000        371
 101.2000        377
 101.6000        369
 102.0000        446
 102.4000        366
 102.8000        396
 103.2000        365
 103.6000        401
 104.0000        421
 104.4000        390
 104.8000        392
 105.2000        392
 105.6000        380
 106.0000        372
 106.4000        396
 106.8000        441
 107.2000        393
 107.6000        381
 108.0000        427
 108.4000        380
 108.8000        423
 109.2000        423
 109.6000        419
 110.0000        478
 110.4000        457
 110.8000        451
 111.2000        397
 111.6000        415
 112.0000        436
 112.4000        404
 112.8000        430
 113.2000        419
 113.6000        441
 114.0000        393
 114.4000        413
 114.8000        455
 115.2000        401
 115.6000        438
 116.0000        414
 116.4000        414
 116.8000        436
 117.2000        428
 117.6000        447
 118.0000        435
 118.4000        467
 118.8000        472
 119.2000        467
 119.6000        466
 120.0000        426
 120.4000        447
 120.8000        476
 121.2000        445
 121.6000        428
 122.0000        458
 122.4000        481
 122.8000        526
 123.2000        580
 123.6000        632
 124.0000        579
 124.4000        525
 124.8000        447
 125.2000        418
 125.6000        434
 126.0000        450
 126.4000        460
 126.8000        418
 127.2000        432
 127.6000        433
 128.0000        436
 128.4000        413
 128.8000        463
 129.2000        459
 129.6000        444
 130.0000        429