File: exp_dat/old/exp_2013_11_11/01pct_181G.uxd
; (content of file C:\DIFFDAT1\GIFT\MDL\Seawoong Lee\20131104_MV8\equal_area_maxkhi080_n8_2th40_130_x-25y-25_180g_2.raw)
_FILEVERSION = 3
_SAMPLE =
_+SAMPLE =
_SITE = Korea
_USER = Admin
_GONIOMETER_CODE = 20
; Goniometer : D8 theta/2theta, stage : Unknown
_SAMPLE_CHANGER_CODE = 0
_ATTACHMENTS_CODE = 0
_GONIOMETER_RADIUS = 300
_FIXED_DIVSLIT = 1
_FIXED_SAMPLESLIT = 0
_SOLLER_SLITS = 2
_FIXED_DETSLIT = 0.1
_MONOCHROMATOR = 0
; Incident beam monochromator : None
_SOLLER_SLITS_2 = 2
_THIN_FILM = N
_BETA_FILTER = Y
_FIXED_ANTISLIT = 0.6
_ANALYZER_CODE = 0
; Received beam analyzer : None
_DATEMEASURED = "09-Nov-2013 06:21:40"
_WL_UNIT = A
_WL1 = 1.78897
_WL2 = 1.79285
_WL3 = 1.62079
_WLRATIO = 0.5
_ANODE = Co
_V4_INF_CREATOR = XRDWizard
_V4_INF_CREATOR_VERSION = V2.9.0.22
_V4_INF_WIZARD_VERSION = V2.9.0.22
_V4_INF_WIZARD_ADDINS = V2.9.0.22
_V4_INF_WIZARD_DOCTYPE = XRD
_V4_INF_OSUSER = Postech
_V4_INF_USER = Admin
_V4_INF_SITE = Korea

; Data for range 1
_DRIVE = COUPLED
_STEPTIME = 0.2
_STEPSIZE = 0.1
_STEPMODE = C
_START = 40
_THETA = 20
_2THETA = 40
_KHI = 0
_PHI = 0
_X = -25
_Y = -25
_Z = 0
_DETECTOR = 1
; Detector type : Scintillation counter
_HV = 687
_GAIN = 80
_LLD = 0.69
_ULD = 1.866
_DETECTORSLIT = unkn
_AUX1 = 0
_AUX2 = 0
_AUX3 = 0
_TIMESTARTED = 28
_TEMP_RATE = -1
_TEMP_DELAY = -1
_KV = 35
_MA = 40
_RANGE_WL = 1.78897
_3DPLANE = 0
_V4_ADDITIONALDETECTOR = 0
_V4_D8_DIBNUM = 1
_V4_DETECTORNAME = "Detector 1"
_V4_TTLDETECTOR = None
_V4_DETECTORTYPE = 1
_V4_DETECTORFLAGS = 524545
_V4_DETECTORHV = 687
_V4_DETECTORGAIN = 80
_V4_DETECTORLLD1 = 0.69
_V4_DETECTORWW1 = 1.176
_V4_DETECTORLLD2 = 0
_V4_DETECTORWW2 = 0
_V4_DETECTORPS = 0
_V4_DETECTORDT = 0
_V4_DETECTORPILEUPTIME = 0
_V4_COUNTERS_MASK = 1
_V4_DRIVES_MASK = 0
_V4_ENCODERS_MASK = 0
_2THETACOUNTS = 1
; 2THETA  Cnt1_D1
  40.0000        524
  40.4000        542
  40.8000        505
  41.2000        492
  41.6000        488
  42.0000        502
  42.4000        523
  42.8000        486
  43.2000        525
  43.6000        500
  44.0000        517
  44.4000        545
  44.8000        508
  45.2000        505
  45.6000        515
  46.0000        538
  46.4000        547
  46.8000        571
  47.2000        529
  47.6000        524
  48.0000        516
  48.4000        498
  48.8000        524
  49.2000        521
  49.6000        509
  50.0000        515
  50.4000        529
  50.8000        539
  51.2000        562
  51.6000        723
  52.0000       1105
  52.4000       1085
  52.8000        639
  53.2000        498
  53.6000        512
  54.0000        477
  54.4000        533
  54.8000        499
  55.2000        503
  55.6000        504
  56.0000        501
  56.4000        546
  56.8000        480
  57.2000        511
  57.6000        506
  58.0000        541
  58.4000        547
  58.8000        553
  59.2000        514
  59.6000        601
  60.0000        567
  60.4000        524
  60.8000        496
  61.2000        504
  61.6000        538
  62.0000        534
  62.4000        522
  62.8000        511
  63.2000        481
  63.6000        494
  64.0000        531
  64.4000        508
  64.8000        521
  65.2000        490
  65.6000        550
  66.0000        514
  66.4000        521
  66.8000        491
  67.2000        531
  67.6000        529
  68.0000        517
  68.4000        533
  68.8000        519
  69.2000        536
  69.6000        461
  70.0000        494
  70.4000        510
  70.8000        473
  71.2000        546
  71.6000        476
  72.0000        514
  72.4000        524
  72.8000        547
  73.2000        516
  73.6000        505
  74.0000        478
  74.4000        536
  74.8000        508
  75.2000        532
  75.6000        477
  76.0000        573
  76.4000       1004
  76.8000       1362
  77.2000       1113
  77.6000        696
  78.0000        585
  78.4000        513
  78.8000        560
  79.2000        508
  79.6000        525
  80.0000        482
  80.4000        485
  80.8000        525
  81.2000        531
  81.6000        497
  82.0000        493
  82.4000        570
  82.8000        550
  83.2000        514
  83.6000        498
  84.0000        508
  84.4000        488
  84.8000        534
  85.2000        509
  85.6000        521
  86.0000        528
  86.4000        543
  86.8000        525
  87.2000        546
  87.6000        487
  88.0000        528
  88.4000        500
  88.8000        538
  89.2000        639
  89.6000        645
  90.0000        552
  90.4000        536
  90.8000        505
  91.2000        509
  91.6000        486
  92.0000        492
  92.4000        506
  92.8000        516
  93.2000        527
  93.6000        478
  94.0000        532
  94.4000        494
  94.8000        506
  95.2000        515
  95.6000        480
  96.0000        520
  96.4000        558
  96.8000        509
  97.2000        539
  97.6000        513
  98.0000        544
  98.4000        604
  98.8000       1027
  99.2000       1545
  99.6000       1403
 100.0000        799
 100.4000        569
 100.8000        508
 101.2000        530
 101.6000        521
 102.0000        545
 102.4000        507
 102.8000        534
 103.2000        533
 103.6000        512
 104.0000        501
 104.4000        504
 104.8000        526
 105.2000        477
 105.6000        472
 106.0000        529
 106.4000        537
 106.8000        517
 107.2000        523
 107.6000        503
 108.0000        515
 108.4000        545
 108.8000        499
 109.2000        535
 109.6000        555
 110.0000        556
 110.4000        549
 110.8000        516
 111.2000        575
 111.6000        587
 112.0000        478
 112.4000        545
 112.8000        569
 113.2000        501
 113.6000        513
 114.0000        516
 114.4000        520
 114.8000        519
 115.2000        538
 115.6000        500
 116.0000        511
 116.4000        499
 116.8000        497
 117.2000        525
 117.6000        477
 118.0000        536
 118.4000        512
 118.8000        508
 119.2000        510
 119.6000        507
 120.0000        505
 120.4000        504
 120.8000        474
 121.2000        511
 121.6000        490
 122.0000        501
 122.4000        491
 122.8000        548
 123.2000        530
 123.6000        535
 124.0000        549
 124.4000        497
 124.8000        520
 125.2000        556
 125.6000        532
 126.0000        507
 126.4000        559
 126.8000        497
 127.2000        475
 127.6000        523
 128.0000        534
 128.4000        492
 128.8000        508
 129.2000        520
 129.6000        492
 130.0000        517

; Data for range 2
_DRIVE = COUPLED
_STEPTIME = 0.2
_STEPSIZE = 0.1
_STEPMODE = C
_START = 40
_THETA = 20
_2THETA = 40
_KHI = 10.5
_PHI = 60
_X = -25
_Y = -25
_Z = 0
_DETECTOR = 1
; Detector type : Scintillation counter
_HV = 687
_GAIN = 80
_LLD = 0.69
_ULD = 1.866
_DETECTORSLIT = unkn
_AUX1 = 0
_AUX2 = 0
_AUX3 = 0
_TIMESTARTED = 225
_TEMP_RATE = -1
_TEMP_DELAY = -1
_KV = 35
_MA = 40
_RANGE_WL = 1.78897
_3DPLANE = 0
_V4_ADDITIONALDETECTOR = 0
_V4_D8_DIBNUM = 1
_V4_DETECTORNAME = "Detector 1"
_V4_TTLDETECTOR = None
_V4_DETECTORTYPE = 1
_V4_DETECTORFLAGS = 524545
_V4_DETECTORHV = 687
_V4_DETECTORGAIN = 80
_V4_DETECTORLLD1 = 0.69
_V4_DETECTORWW1 = 1.176
_V4_DETECTORLLD2 = 0
_V4_DETECTORWW2 = 0
_V4_DETECTORPS = 0
_V4_DETECTORDT = 0
_V4_DETECTORPILEUPTIME = 0
_V4_COUNTERS_MASK = 1
_V4_DRIVES_MASK = 0
_V4_ENCODERS_MASK = 0
_2THETACOUNTS = 1
; 2THETA  Cnt1_D1
  40.0000        516
  40.4000        527
  40.8000        542
  41.2000        489
  41.6000        527
  42.0000        534
  42.4000        477
  42.8000        532
  43.2000        537
  43.6000        505
  44.0000        508
  44.4000        518
  44.8000        527
  45.2000        533
  45.6000        538
  46.0000        494
  46.4000        555
  46.8000        539
  47.2000        540
  47.6000        541
  48.0000        523
  48.4000        534
  48.8000        524
  49.2000        541
  49.6000        526
  50.0000        538
  50.4000        548
  50.8000        547
  51.2000        594
  51.6000        725
  52.0000       1252
  52.4000       1240
  52.8000        617
  53.2000        539
  53.6000        532
  54.0000        538
  54.4000        510
  54.8000        530
  55.2000        535
  55.6000        493
  56.0000        536
  56.4000        498
  56.8000        533
  57.2000        504
  57.6000        499
  58.0000        495
  58.4000        442
  58.8000        522
  59.2000        523
  59.6000        516
  60.0000        511
  60.4000        479
  60.8000        487
  61.2000        539
  61.6000        504
  62.0000        460
  62.4000        521
  62.8000        504
  63.2000        509
  63.6000        513
  64.0000        510
  64.4000        522
  64.8000        498
  65.2000        527
  65.6000        534
  66.0000        488
  66.4000        524
  66.8000        505
  67.2000        553
  67.6000        501
  68.0000        523
  68.4000        520
  68.8000        551
  69.2000        538
  69.6000        531
  70.0000        532
  70.4000        505
  70.8000        491
  71.2000        510
  71.6000        526
  72.0000        496
  72.4000        517
  72.8000        480
  73.2000        488
  73.6000        525
  74.0000        466
  74.4000        493
  74.8000        503
  75.2000        540
  75.6000        531
  76.0000        519
  76.4000        630
  76.8000        735
  77.2000        704
  77.6000        570
  78.0000        485
  78.4000        529
  78.8000        491
  79.2000        488
  79.6000        504
  80.0000        538
  80.4000        455
  80.8000        507
  81.2000        494
  81.6000        489
  82.0000        524
  82.4000        497
  82.8000        501
  83.2000        476
  83.6000        483
  84.0000        499
  84.4000        490
  84.8000        530
  85.2000        532
  85.6000        510
  86.0000        499
  86.4000        502
  86.8000        509
  87.2000        536
  87.6000        517
  88.0000        531
  88.4000        501
  88.8000        527
  89.2000        518
  89.6000        595
  90.0000        535
  90.4000        492
  90.8000        514
  91.2000        510
  91.6000        469
  92.0000        514
  92.4000        509
  92.8000        537
  93.2000        490
  93.6000        508
  94.0000        513
  94.4000        509
  94.8000        534
  95.2000        518
  95.6000        519
  96.0000        499
  96.4000        545
  96.8000        506
  97.2000        533
  97.6000        518
  98.0000        502
  98.4000        520
  98.8000        694
  99.2000        964
  99.6000        936
 100.0000        609
 100.4000        574
 100.8000        499
 101.2000        524
 101.6000        555
 102.0000        526
 102.4000        495
 102.8000        493
 103.2000        478
 103.6000        534
 104.0000        488
 104.4000        500
 104.8000        504
 105.2000        501
 105.6000        539
 106.0000        503
 106.4000        488
 106.8000        494
 107.2000        503
 107.6000        499
 108.0000        508
 108.4000        498
 108.8000        529
 109.2000        531
 109.6000        574
 110.0000        506
 110.4000        541
 110.8000        534
 111.2000        532
 111.6000        541
 112.0000        497
 112.4000        531
 112.8000        509
 113.2000        489
 113.6000        524
 114.0000        495
 114.4000        511
 114.8000        496
 115.2000        504
 115.6000        554
 116.0000        459
 116.4000        496
 116.8000        496
 117.2000        486
 117.6000        506
 118.0000        526
 118.4000        516
 118.8000        501
 119.2000        485
 119.6000        525
 120.0000        527
 120.4000        482
 120.8000        483
 121.2000        502
 121.6000        516
 122.0000        503
 122.4000        567
 122.8000        493
 123.2000        555
 123.6000        565
 124.0000        552
 124.4000        491
 124.8000        509
 125.2000        509
 125.6000        506
 126.0000        517
 126.4000        504
 126.8000        509
 127.2000        485
 127.6000        521
 128.0000        479
 128.4000        524
 128.8000        494
 129.2000        487
 129.6000        513
 130.0000        486

; Data for range 3
_DRIVE = COUPLED
_STEPTIME = 0.2
_STEPSIZE = 0.1
_STEPMODE = C
_START = 40
_THETA = 20
_2THETA = 40
_KHI = 18.3
_PHI = 90
_X = -25
_Y = -25
_Z = 0
_DETECTOR = 1
; Detector type : Scintillation counter
_HV = 687
_GAIN = 80
_LLD = 0.69
_ULD = 1.866
_DETECTORSLIT = unkn
_AUX1 = 0
_AUX2 = 0
_AUX3 = 0
_TIMESTARTED = 422
_TEMP_RATE = -1
_TEMP_DELAY = -1
_KV = 35
_MA = 40
_RANGE_WL = 1.78897
_3DPLANE = 0
_V4_ADDITIONALDETECTOR = 0
_V4_D8_DIBNUM = 1
_V4_DETECTORNAME = "Detector 1"
_V4_TTLDETECTOR = None
_V4_DETECTORTYPE = 1
_V4_DETECTORFLAGS = 524545
_V4_DETECTORHV = 687
_V4_DETECTORGAIN = 80
_V4_DETECTORLLD1 = 0.69
_V4_DETECTORWW1 = 1.176
_V4_DETECTORLLD2 = 0
_V4_DETECTORWW2 = 0
_V4_DETECTORPS = 0
_V4_DETECTORDT = 0
_V4_DETECTORPILEUPTIME = 0
_V4_COUNTERS_MASK = 1
_V4_DRIVES_MASK = 0
_V4_ENCODERS_MASK = 0
_2THETACOUNTS = 1
; 2THETA  Cnt1_D1
  40.0000        484
  40.4000        518
  40.8000        504
  41.2000        507
  41.6000        505
  42.0000        548
  42.4000        484
  42.8000        533
  43.2000        515
  43.6000        518
  44.0000        513
  44.4000        528
  44.8000        494
  45.2000        517
  45.6000        472
  46.0000        527
  46.4000        549
  46.8000        483
  47.2000        510
  47.6000        524
  48.0000        552
  48.4000        500
  48.8000        524
  49.2000        491
  49.6000        546
  50.0000        557
  50.4000        617
  50.8000        798
  51.2000        803
  51.6000       1072
  52.0000       2214
  52.4000       2090
  52.8000        787
  53.2000        541
  53.6000        541
  54.0000        537
  54.4000        548
  54.8000        501
  55.2000        509
  55.6000        523
  56.0000        496
  56.4000        513
  56.8000        494
  57.2000        507
  57.6000        532
  58.0000        535
  58.4000        505
  58.8000        557
  59.2000        555
  59.6000        530
  60.0000        509
  60.4000        523
  60.8000        494
  61.2000        541
  61.6000        520
  62.0000        525
  62.4000        521
  62.8000        510
  63.2000        490
  63.6000        491
  64.0000        533
  64.4000        501
  64.8000        514
  65.2000        489
  65.6000        465
  66.0000        524
  66.4000        483
  66.8000        467
  67.2000        496
  67.6000        480
  68.0000        493
  68.4000        520
  68.8000        525
  69.2000        504
  69.6000        476
  70.0000        519
  70.4000        502
  70.8000        488
  71.2000        473
  71.6000        521
  72.0000        480
  72.4000        472
  72.8000        470
  73.2000        509
  73.6000        496
  74.0000        517
  74.4000        509
  74.8000        498
  75.2000        502
  75.6000        501
  76.0000        501
  76.4000        530
  76.8000        590
  77.2000        550
  77.6000        531
  78.0000        498
  78.4000        525
  78.8000        503
  79.2000        449
  79.6000        501
  80.0000        527
  80.4000        494
  80.8000        550
  81.2000        489
  81.6000        476
  82.0000        522
  82.4000        488
  82.8000        509
  83.2000        500
  83.6000        488
  84.0000        445
  84.4000        480
  84.8000        518
  85.2000        443
  85.6000        496
  86.0000        534
  86.4000        497
  86.8000        496
  87.2000        492
  87.6000        547
  88.0000        483
  88.4000        482
  88.8000        528
  89.2000        513
  89.6000        533
  90.0000        536
  90.4000        494
  90.8000        503
  91.2000        534
  91.6000        514
  92.0000        480
  92.4000        489
  92.8000        488
  93.2000        509
  93.6000        508
  94.0000        532
  94.4000        521
  94.8000        527
  95.2000        533
  95.6000        487
  96.0000        490
  96.4000        532
  96.8000        517
  97.2000        543
  97.6000        497
  98.0000        489
  98.4000        567
  98.8000        610
  99.2000        811
  99.6000        808
 100.0000        592
 100.4000        586
 100.8000        494
 101.2000        508
 101.6000        474
 102.0000        521
 102.4000        515
 102.8000        513
 103.2000        499
 103.6000        522
 104.0000        525
 104.4000        511
 104.8000        511
 105.2000        457
 105.6000        500
 106.0000        493
 106.4000        510
 106.8000        503
 107.2000        508
 107.6000        513
 108.0000        493
 108.4000        502
 108.8000        479
 109.2000        520
 109.6000        494
 110.0000        501
 110.4000        527
 110.8000        534
 111.2000        524
 111.6000        541
 112.0000        486
 112.4000        490
 112.8000        527
 113.2000        530
 113.6000        471
 114.0000        526
 114.4000        508
 114.8000        498
 115.2000        494
 115.6000        478
 116.0000        487
 116.4000        559
 116.8000        522
 117.2000        459
 117.6000        531
 118.0000        489
 118.4000        500
 118.8000        490
 119.2000        506
 119.6000        555
 120.0000        516
 120.4000        518
 120.8000        513
 121.2000        511
 121.6000        514
[...]
  72.4000        360
  72.8000        320
  73.2000        384
  73.6000        343
  74.0000        342
  74.4000        360
  74.8000        383
  75.2000        355
  75.6000        403
  76.0000        367
  76.4000        415
  76.8000        438
  77.2000        463
  77.6000        465
  78.0000        419
  78.4000        407
  78.8000        346
  79.2000        326
  79.6000        384
  80.0000        354
  80.4000        346
  80.8000        365
  81.2000        337
  81.6000        355
  82.0000        391
  82.4000        390
  82.8000        384
  83.2000        367
  83.6000        377
  84.0000        354
  84.4000        363
  84.8000        411
  85.2000        391
  85.6000        399
  86.0000        351
  86.4000        395
  86.8000        395
  87.2000        381
  87.6000        399
  88.0000        397
  88.4000        383
  88.8000        382
  89.2000        399
  89.6000        378
  90.0000        366
  90.4000        364
  90.8000        383
  91.2000        377
  91.6000        414
  92.0000        460
  92.4000        423
  92.8000        399
  93.2000        416
  93.6000        384
  94.0000        389
  94.4000        368
  94.8000        384
  95.2000        389
  95.6000        412
  96.0000        413
  96.4000        397
  96.8000        403
  97.2000        405
  97.6000        412
  98.0000        464
  98.4000        505
  98.8000        632
  99.2000        646
  99.6000        700
 100.0000        566
 100.4000        464
 100.8000        406
 101.2000        397
 101.6000        387
 102.0000        388
 102.4000        412
 102.8000        394
 103.2000        419
 103.6000        445
 104.0000        418
 104.4000        412
 104.8000        390
 105.2000        404
 105.6000        373
 106.0000        417
 106.4000        424
 106.8000        441
 107.2000        412
 107.6000        460
 108.0000        446
 108.4000        439
 108.8000        428
 109.2000        399
 109.6000        400
 110.0000        449
 110.4000        463
 110.8000        428
 111.2000        406
 111.6000        442
 112.0000        409
 112.4000        451
 112.8000        463
 113.2000        462
 113.6000        453
 114.0000        438
 114.4000        450
 114.8000        429
 115.2000        436
 115.6000        437
 116.0000        457
 116.4000        414
 116.8000        391
 117.2000        436
 117.6000        433
 118.0000        450
 118.4000        401
 118.8000        411
 119.2000        424
 119.6000        455
 120.0000        486
 120.4000        462
 120.8000        514
 121.2000        427
 121.6000        460
 122.0000        422
 122.4000        477
 122.8000        576
 123.2000        561
 123.6000        588
 124.0000        522
 124.4000        517
 124.8000        471
 125.2000        459
 125.6000        438
 126.0000        422
 126.4000        414
 126.8000        480
 127.2000        445
 127.6000        415
 128.0000        426
 128.4000        454
 128.8000        441
 129.2000        443
 129.6000        464
 130.0000        483

; Data for range 53
_DRIVE = COUPLED
_STEPTIME = 0.2
_STEPSIZE = 0.1
_STEPMODE = C
_START = 40
_THETA = 20
_2THETA = 40
_KHI = 80
_PHI = 0
_X = -25
_Y = -25
_Z = 0
_DETECTOR = 1
; Detector type : Scintillation counter
_HV = 687
_GAIN = 80
_LLD = 0.69
_ULD = 1.866
_DETECTORSLIT = unkn
_AUX1 = 0
_AUX2 = 0
_AUX3 = 0
_TIMESTARTED = 1.03e+004
_TEMP_RATE = -1
_TEMP_DELAY = -1
_KV = 35
_MA = 40
_RANGE_WL = 1.78897
_3DPLANE = 0
_V4_ADDITIONALDETECTOR = 0
_V4_D8_DIBNUM = 1
_V4_DETECTORNAME = "Detector 1"
_V4_TTLDETECTOR = None
_V4_DETECTORTYPE = 1
_V4_DETECTORFLAGS = 524545
_V4_DETECTORHV = 687
_V4_DETECTORGAIN = 80
_V4_DETECTORLLD1 = 0.69
_V4_DETECTORWW1 = 1.176
_V4_DETECTORLLD2 = 0
_V4_DETECTORWW2 = 0
_V4_DETECTORPS = 0
_V4_DETECTORDT = 0
_V4_DETECTORPILEUPTIME = 0
_V4_COUNTERS_MASK = 1
_V4_DRIVES_MASK = 0
_V4_ENCODERS_MASK = 0
_2THETACOUNTS = 1
; 2THETA  Cnt1_D1
  40.0000        179
  40.4000        169
  40.8000        177
  41.2000        176
  41.6000        180
  42.0000        148
  42.4000        198
  42.8000        192
  43.2000        190
  43.6000        253
  44.0000        216
  44.4000        176
  44.8000        178
  45.2000        187
  45.6000        182
  46.0000        206
  46.4000        180
  46.8000        215
  47.2000        183
  47.6000        188
  48.0000        198
  48.4000        193
  48.8000        195
  49.2000        197
  49.6000        192
  50.0000        215
  50.4000        220
  50.8000        312
  51.2000        367
  51.6000        545
  52.0000        828
  52.4000        908
  52.8000        707
  53.2000        442
  53.6000        276
  54.0000        216
  54.4000        216
  54.8000        216
  55.2000        244
  55.6000        210
  56.0000        227
  56.4000        219
  56.8000        212
  57.2000        262
  57.6000        209
  58.0000        209
  58.4000        245
  58.8000        253
  59.2000        265
  59.6000        227
  60.0000        248
  60.4000        267
  60.8000        261
  61.2000        234
  61.6000        245
  62.0000        249
  62.4000        247
  62.8000        254
  63.2000        213
  63.6000        243
  64.0000        245
  64.4000        265
  64.8000        240
  65.2000        255
  65.6000        260
  66.0000        253
  66.4000        292
  66.8000        255
  67.2000        312
  67.6000        249
  68.0000        279
  68.4000        250
  68.8000        307
  69.2000        273
  69.6000        277
  70.0000        267
  70.4000        255
  70.8000        238
  71.2000        287
  71.6000        285
  72.0000        303
  72.4000        308
  72.8000        295
  73.2000        281
  73.6000        290
  74.0000        298
  74.4000        284
  74.8000        293
  75.2000        330
  75.6000        319
  76.0000        302
  76.4000        327
  76.8000        365
  77.2000        353
  77.6000        327
  78.0000        350
  78.4000        304
  78.8000        304
  79.2000        321
  79.6000        307
  80.0000        315
  80.4000        334
  80.8000        316
  81.2000        332
  81.6000        315
  82.0000        332
  82.4000        337
  82.8000        341
  83.2000        332
  83.6000        303
  84.0000        330
  84.4000        330
  84.8000        326
  85.2000        350
  85.6000        367
  86.0000        323
  86.4000        338
  86.8000        323
  87.2000        324
  87.6000        340
  88.0000        362
  88.4000        394
  88.8000        365
  89.2000        391
  89.6000        388
  90.0000        394
  90.4000        353
  90.8000        363
  91.2000        369
  91.6000        360
  92.0000        323
  92.4000        366
  92.8000        358
  93.2000        367
  93.6000        400
  94.0000        384
  94.4000        327
  94.8000        387
  95.2000        383
  95.6000        363
  96.0000        381
  96.4000        393
  96.8000        419
  97.2000        370
  97.6000        359
  98.0000        444
  98.4000        516
  98.8000        618
  99.2000        669
  99.6000        613
 100.0000        521
 100.4000        487
 100.8000        455
 101.2000        396
 101.6000        413
 102.0000        395
 102.4000        402
 102.8000        399
 103.2000        397
 103.6000        382
 104.0000        376
 104.4000        401
 104.8000        415
 105.2000        437
 105.6000        421
 106.0000        388
 106.4000        383
 106.8000        413
 107.2000        414
 107.6000        427
 108.0000        383
 108.4000        424
 108.8000        410
 109.2000        407
 109.6000        412
 110.0000        432
 110.4000        402
 110.8000        411
 111.2000        457
 111.6000        426
 112.0000        438
 112.4000        403
 112.8000        455
 113.2000        423
 113.6000        493
 114.0000        410
 114.4000        421
 114.8000        431
 115.2000        431
 115.6000        457
 116.0000        416
 116.4000        410
 116.8000        430
 117.2000        444
 117.6000        430
 118.0000        430
 118.4000        409
 118.8000        454
 119.2000        422
 119.6000        473
 120.0000        461
 120.4000        445
 120.8000        457
 121.2000        389
 121.6000        450
 122.0000        426
 122.4000        477
 122.8000        552
 123.2000        591
 123.6000        599
 124.0000        589
 124.4000        499
 124.8000        480
 125.2000        485
 125.6000        415
 126.0000        464
 126.4000        431
 126.8000        450
 127.2000        481
 127.6000        409
 128.0000        460
 128.4000        435
 128.8000        381
 129.2000        446
 129.6000        442
 130.0000        430