File: exp_dat/old/exp_2013_11_11/03pct_150G.uxd
; (content of file C:\DIFFDAT1\GIFT\MDL\Seawoong Lee\20131104_MV8\equal_area_maxkhi080_n8_2th40_130_x00y25_150g.raw)
_FILEVERSION = 3
_SAMPLE =
_+SAMPLE =
_SITE = Korea
_USER = Admin
_GONIOMETER_CODE = 20
; Goniometer : D8 theta/2theta, stage : Unknown
_SAMPLE_CHANGER_CODE = 0
_ATTACHMENTS_CODE = 0
_GONIOMETER_RADIUS = 300
_FIXED_DIVSLIT = 1
_FIXED_SAMPLESLIT = 0
_SOLLER_SLITS = 2
_FIXED_DETSLIT = 0.1
_MONOCHROMATOR = 0
; Incident beam monochromator : None
_SOLLER_SLITS_2 = 2
_THIN_FILM = N
_BETA_FILTER = Y
_FIXED_ANTISLIT = 0.6
_ANALYZER_CODE = 0
; Received beam analyzer : None
_DATEMEASURED = "06-Nov-2013 03:42:28"
_WL_UNIT = A
_WL1 = 1.78897
_WL2 = 1.79285
_WL3 = 1.62079
_WLRATIO = 0.5
_ANODE = Co
_V4_INF_CREATOR = XRDWizard
_V4_INF_CREATOR_VERSION = V2.9.0.22
_V4_INF_WIZARD_VERSION = V2.9.0.22
_V4_INF_WIZARD_ADDINS = V2.9.0.22
_V4_INF_WIZARD_DOCTYPE = XRD
_V4_INF_OSUSER = Postech
_V4_INF_USER = Admin
_V4_INF_SITE = Korea

; Data for range 1
_DRIVE = COUPLED
_STEPTIME = 0.2
_STEPSIZE = 0.1
_STEPMODE = C
_START = 40
_THETA = 20
_2THETA = 40
_KHI = 0
_PHI = 0
_X = 0
_Y = 25
_Z = 0
_DETECTOR = 1
; Detector type : Scintillation counter
_HV = 687
_GAIN = 80
_LLD = 0.69
_ULD = 1.866
_DETECTORSLIT = unkn
_AUX1 = 0
_AUX2 = 0
_AUX3 = 0
_TIMESTARTED = 28
_TEMP_RATE = -1
_TEMP_DELAY = -1
_KV = 35
_MA = 40
_RANGE_WL = 1.78897
_3DPLANE = 0
_V4_ADDITIONALDETECTOR = 0
_V4_D8_DIBNUM = 1
_V4_DETECTORNAME = "Detector 1"
_V4_TTLDETECTOR = None
_V4_DETECTORTYPE = 1
_V4_DETECTORFLAGS = 524545
_V4_DETECTORHV = 687
_V4_DETECTORGAIN = 80
_V4_DETECTORLLD1 = 0.69
_V4_DETECTORWW1 = 1.176
_V4_DETECTORLLD2 = 0
_V4_DETECTORWW2 = 0
_V4_DETECTORPS = 0
_V4_DETECTORDT = 0
_V4_DETECTORPILEUPTIME = 0
_V4_COUNTERS_MASK = 1
_V4_DRIVES_MASK = 0
_V4_ENCODERS_MASK = 0
_2THETACOUNTS = 1
; 2THETA  Cnt1_D1
  40.0000        477
  40.4000        493
  40.8000        435
  41.2000        516
  41.6000        530
  42.0000        488
  42.4000        513
  42.8000        498
  43.2000        492
  43.6000        546
  44.0000        519
  44.4000        527
  44.8000        506
  45.2000        545
  45.6000        530
  46.0000        517
  46.4000        490
  46.8000        519
  47.2000        493
  47.6000        491
  48.0000        477
  48.4000        515
  48.8000        508
  49.2000        467
  49.6000        507
  50.0000        492
  50.4000        548
  50.8000        560
  51.2000        615
  51.6000        641
  52.0000        974
  52.4000       1037
  52.8000        634
  53.2000        530
  53.6000        522
  54.0000        524
  54.4000        510
  54.8000        519
  55.2000        524
  55.6000        545
  56.0000        504
  56.4000        537
  56.8000        539
  57.2000        526
  57.6000        532
  58.0000        504
  58.4000        516
  58.8000        521
  59.2000        555
  59.6000        587
  60.0000        545
  60.4000        534
  60.8000        487
  61.2000        515
  61.6000        494
  62.0000        508
  62.4000        518
  62.8000        551
  63.2000        475
  63.6000        506
  64.0000        488
  64.4000        508
  64.8000        502
  65.2000        508
  65.6000        530
  66.0000        502
  66.4000        544
  66.8000        500
  67.2000        481
  67.6000        508
  68.0000        556
  68.4000        507
  68.8000        538
  69.2000        496
  69.6000        563
  70.0000        499
  70.4000        538
  70.8000        533
  71.2000        469
  71.6000        482
  72.0000        540
  72.4000        481
  72.8000        501
  73.2000        509
  73.6000        516
  74.0000        486
  74.4000        505
  74.8000        506
  75.2000        498
  75.6000        569
  76.0000        612
  76.4000        876
  76.8000       1247
  77.2000       1024
  77.6000        627
  78.0000        567
  78.4000        495
  78.8000        544
  79.2000        505
  79.6000        494
  80.0000        503
  80.4000        500
  80.8000        476
  81.2000        510
  81.6000        518
  82.0000        539
  82.4000        531
  82.8000        539
  83.2000        519
  83.6000        542
  84.0000        493
  84.4000        512
  84.8000        521
  85.2000        511
  85.6000        497
  86.0000        520
  86.4000        527
  86.8000        490
  87.2000        502
  87.6000        493
  88.0000        552
  88.4000        539
  88.8000        563
  89.2000        666
  89.6000        655
  90.0000        605
  90.4000        570
  90.8000        500
  91.2000        547
  91.6000        503
  92.0000        529
  92.4000        489
  92.8000        515
  93.2000        530
  93.6000        537
  94.0000        531
  94.4000        476
  94.8000        485
  95.2000        500
  95.6000        510
  96.0000        505
  96.4000        503
  96.8000        521
  97.2000        531
  97.6000        495
  98.0000        531
  98.4000        606
  98.8000       1037
  99.2000       1543
  99.6000       1471
 100.0000        827
 100.4000        592
 100.8000        610
 101.2000        545
 101.6000        502
 102.0000        511
 102.4000        558
 102.8000        537
 103.2000        508
 103.6000        545
 104.0000        511
 104.4000        534
 104.8000        546
 105.2000        492
 105.6000        492
 106.0000        508
 106.4000        486
 106.8000        529
 107.2000        503
 107.6000        493
 108.0000        526
 108.4000        491
 108.8000        563
 109.2000        547
 109.6000        478
 110.0000        497
 110.4000        551
 110.8000        511
 111.2000        572
 111.6000        531
 112.0000        501
 112.4000        491
 112.8000        513
 113.2000        460
 113.6000        499
 114.0000        532
 114.4000        487
 114.8000        527
 115.2000        454
 115.6000        522
 116.0000        500
 116.4000        524
 116.8000        513
 117.2000        502
 117.6000        512
 118.0000        530
 118.4000        508
 118.8000        507
 119.2000        565
 119.6000        474
 120.0000        463
 120.4000        517
 120.8000        500
 121.2000        511
 121.6000        532
 122.0000        470
 122.4000        551
 122.8000        531
 123.2000        546
 123.6000        539
 124.0000        506
 124.4000        554
 124.8000        494
 125.2000        534
 125.6000        453
 126.0000        485
 126.4000        483
 126.8000        529
 127.2000        517
 127.6000        553
 128.0000        521
 128.4000        503
 128.8000        506
 129.2000        502
 129.6000        521
 130.0000        514

; Data for range 2
_DRIVE = COUPLED
_STEPTIME = 0.2
_STEPSIZE = 0.1
_STEPMODE = C
_START = 40
_THETA = 20
_2THETA = 40
_KHI = 10.5
_PHI = 60
_X = 0
_Y = 25
_Z = 0
_DETECTOR = 1
; Detector type : Scintillation counter
_HV = 687
_GAIN = 80
_LLD = 0.69
_ULD = 1.866
_DETECTORSLIT = unkn
_AUX1 = 0
_AUX2 = 0
_AUX3 = 0
_TIMESTARTED = 225
_TEMP_RATE = -1
_TEMP_DELAY = -1
_KV = 35
_MA = 40
_RANGE_WL = 1.78897
_3DPLANE = 0
_V4_ADDITIONALDETECTOR = 0
_V4_D8_DIBNUM = 1
_V4_DETECTORNAME = "Detector 1"
_V4_TTLDETECTOR = None
_V4_DETECTORTYPE = 1
_V4_DETECTORFLAGS = 524545
_V4_DETECTORHV = 687
_V4_DETECTORGAIN = 80
_V4_DETECTORLLD1 = 0.69
_V4_DETECTORWW1 = 1.176
_V4_DETECTORLLD2 = 0
_V4_DETECTORWW2 = 0
_V4_DETECTORPS = 0
_V4_DETECTORDT = 0
_V4_DETECTORPILEUPTIME = 0
_V4_COUNTERS_MASK = 1
_V4_DRIVES_MASK = 0
_V4_ENCODERS_MASK = 0
_2THETACOUNTS = 1
; 2THETA  Cnt1_D1
  40.0000        537
  40.4000        520
  40.8000        517
  41.2000        518
  41.6000        543
  42.0000        549
  42.4000        548
  42.8000        517
  43.2000        500
  43.6000        532
  44.0000        539
  44.4000        517
  44.8000        605
  45.2000        521
  45.6000        581
  46.0000        564
  46.4000        523
  46.8000        542
  47.2000        559
  47.6000        501
  48.0000        552
  48.4000        495
  48.8000        512
  49.2000        531
  49.6000        517
  50.0000        503
  50.4000        559
  50.8000        546
  51.2000        579
  51.6000        730
  52.0000       1094
  52.4000       1027
  52.8000        633
  53.2000        529
  53.6000        531
  54.0000        495
  54.4000        514
  54.8000        551
  55.2000        542
  55.6000        539
  56.0000        526
  56.4000        520
  56.8000        499
  57.2000        530
  57.6000        532
  58.0000        559
  58.4000        525
  58.8000        506
  59.2000        558
  59.6000        568
  60.0000        527
  60.4000        503
  60.8000        507
  61.2000        528
  61.6000        507
  62.0000        528
  62.4000        499
  62.8000        517
  63.2000        510
  63.6000        509
  64.0000        506
  64.4000        548
  64.8000        511
  65.2000        547
  65.6000        507
  66.0000        534
  66.4000        534
  66.8000        526
  67.2000        519
  67.6000        517
  68.0000        532
  68.4000        510
  68.8000        512
  69.2000        483
  69.6000        481
  70.0000        517
  70.4000        529
  70.8000        533
  71.2000        540
  71.6000        535
  72.0000        499
  72.4000        528
  72.8000        531
  73.2000        494
  73.6000        468
  74.0000        530
  74.4000        519
  74.8000        537
  75.2000        532
  75.6000        538
  76.0000        556
  76.4000        804
  76.8000        883
  77.2000        755
  77.6000        571
  78.0000        565
  78.4000        490
  78.8000        541
  79.2000        488
  79.6000        514
  80.0000        546
  80.4000        517
  80.8000        511
  81.2000        518
  81.6000        544
  82.0000        504
  82.4000        476
  82.8000        485
  83.2000        504
  83.6000        495
  84.0000        507
  84.4000        495
  84.8000        493
  85.2000        521
  85.6000        522
  86.0000        538
  86.4000        526
  86.8000        507
  87.2000        467
  87.6000        509
  88.0000        515
  88.4000        558
  88.8000        605
  89.2000        632
  89.6000        582
  90.0000        579
  90.4000        526
  90.8000        513
  91.2000        508
  91.6000        500
  92.0000        531
  92.4000        506
  92.8000        498
  93.2000        486
  93.6000        553
  94.0000        534
  94.4000        537
  94.8000        514
  95.2000        534
  95.6000        530
  96.0000        500
  96.4000        522
  96.8000        500
  97.2000        492
  97.6000        522
  98.0000        541
  98.4000        570
  98.8000        875
  99.2000       1157
  99.6000       1084
 100.0000        716
 100.4000        512
 100.8000        565
 101.2000        505
 101.6000        463
 102.0000        566
 102.4000        535
 102.8000        539
 103.2000        535
 103.6000        517
 104.0000        520
 104.4000        549
 104.8000        494
 105.2000        509
 105.6000        560
 106.0000        480
 106.4000        488
 106.8000        513
 107.2000        538
 107.6000        501
 108.0000        495
 108.4000        530
 108.8000        543
 109.2000        526
 109.6000        511
 110.0000        517
 110.4000        526
 110.8000        525
 111.2000        578
 111.6000        547
 112.0000        553
 112.4000        530
 112.8000        561
 113.2000        475
 113.6000        505
 114.0000        471
 114.4000        498
 114.8000        507
 115.2000        487
 115.6000        482
 116.0000        528
 116.4000        468
 116.8000        535
 117.2000        488
 117.6000        525
 118.0000        512
 118.4000        490
 118.8000        527
 119.2000        551
 119.6000        502
 120.0000        522
 120.4000        498
 120.8000        486
 121.2000        495
 121.6000        497
 122.0000        511
 122.4000        518
 122.8000        554
 123.2000        539
 123.6000        577
 124.0000        543
 124.4000        531
 124.8000        511
 125.2000        525
 125.6000        502
 126.0000        518
 126.4000        507
 126.8000        553
 127.2000        497
 127.6000        522
 128.0000        503
 128.4000        510
 128.8000        486
 129.2000        503
 129.6000        495
 130.0000        519

; Data for range 3
_DRIVE = COUPLED
_STEPTIME = 0.2
_STEPSIZE = 0.1
_STEPMODE = C
_START = 40
_THETA = 20
_2THETA = 40
_KHI = 18.3
_PHI = 90
_X = 0
_Y = 25
_Z = 0
_DETECTOR = 1
; Detector type : Scintillation counter
_HV = 687
_GAIN = 80
_LLD = 0.69
_ULD = 1.866
_DETECTORSLIT = unkn
_AUX1 = 0
_AUX2 = 0
_AUX3 = 0
_TIMESTARTED = 422
_TEMP_RATE = -1
_TEMP_DELAY = -1
_KV = 35
_MA = 40
_RANGE_WL = 1.78897
_3DPLANE = 0
_V4_ADDITIONALDETECTOR = 0
_V4_D8_DIBNUM = 1
_V4_DETECTORNAME = "Detector 1"
_V4_TTLDETECTOR = None
_V4_DETECTORTYPE = 1
_V4_DETECTORFLAGS = 524545
_V4_DETECTORHV = 687
_V4_DETECTORGAIN = 80
_V4_DETECTORLLD1 = 0.69
_V4_DETECTORWW1 = 1.176
_V4_DETECTORLLD2 = 0
_V4_DETECTORWW2 = 0
_V4_DETECTORPS = 0
_V4_DETECTORDT = 0
_V4_DETECTORPILEUPTIME = 0
_V4_COUNTERS_MASK = 1
_V4_DRIVES_MASK = 0
_V4_ENCODERS_MASK = 0
_2THETACOUNTS = 1
; 2THETA  Cnt1_D1
  40.0000        545
  40.4000        576
  40.8000        532
  41.2000        527
  41.6000        531
  42.0000        511
  42.4000        500
  42.8000        501
  43.2000        481
  43.6000        564
  44.0000        518
  44.4000        535
  44.8000        516
  45.2000        502
  45.6000        529
  46.0000        556
  46.4000        507
  46.8000        490
  47.2000        518
  47.6000        532
  48.0000        543
  48.4000        539
  48.8000        559
  49.2000        512
  49.6000        515
  50.0000        548
  50.4000        544
  50.8000        595
  51.2000        591
  51.6000        755
  52.0000       1114
  52.4000       1062
  52.8000        606
  53.2000        520
  53.6000        510
  54.0000        517
  54.4000        532
  54.8000        537
  55.2000        506
  55.6000        521
  56.0000        527
  56.4000        582
  56.8000        559
  57.2000        541
  57.6000        457
  58.0000        482
  58.4000        517
  58.8000        508
  59.2000        552
  59.6000        554
  60.0000        552
  60.4000        512
  60.8000        534
  61.2000        546
  61.6000        529
  62.0000        491
  62.4000        519
  62.8000        514
  63.2000        537
  63.6000        486
  64.0000        526
  64.4000        481
  64.8000        511
  65.2000        508
  65.6000        525
  66.0000        512
  66.4000        552
  66.8000        520
  67.2000        526
  67.6000        500
  68.0000        504
  68.4000        537
  68.8000        548
  69.2000        509
  69.6000        516
  70.0000        523
  70.4000        500
  70.8000        533
  71.2000        525
  71.6000        560
  72.0000        496
  72.4000        508
  72.8000        508
  73.2000        520
  73.6000        508
  74.0000        537
  74.4000        560
  74.8000        511
  75.2000        513
  75.6000        541
  76.0000        619
  76.4000       1018
  76.8000       1371
  77.2000        999
  77.6000        603
  78.0000        504
  78.4000        564
  78.8000        493
  79.2000        505
  79.6000        499
  80.0000        513
  80.4000        514
  80.8000        491
  81.2000        509
  81.6000        493
  82.0000        518
  82.4000        503
  82.8000        532
  83.2000        512
  83.6000        552
  84.0000        502
  84.4000        550
  84.8000        536
  85.2000        552
  85.6000        553
  86.0000        523
  86.4000        505
  86.8000        487
  87.2000        523
  87.6000        507
  88.0000        515
  88.4000        552
  88.8000        567
  89.2000        617
  89.6000        603
  90.0000        594
  90.4000        535
  90.8000        545
  91.2000        457
  91.6000        539
  92.0000        532
  92.4000        502
  92.8000        514
  93.2000        508
  93.6000        521
  94.0000        529
  94.4000        543
  94.8000        516
  95.2000        518
  95.6000        548
  96.0000        509
  96.4000        509
  96.8000        526
  97.2000        515
  97.6000        510
  98.0000        531
  98.4000        634
  98.8000       1064
  99.2000       1383
  99.6000       1290
 100.0000        769
 100.4000        579
 100.8000        530
 101.2000        551
 101.6000        531
 102.0000        517
 102.4000        498
 102.8000        520
 103.2000        534
 103.6000        549
 104.0000        480
 104.4000        508
 104.8000        515
 105.2000        543
 105.6000        521
 106.0000        531
 106.4000        500
 106.8000        550
 107.2000        563
 107.6000        488
 108.0000        475
 108.4000        504
 108.8000        550
 109.2000        490
 109.6000        518
 110.0000        519
 110.4000        551
 110.8000        549
 111.2000        578
 111.6000        529
 112.0000        521
 112.4000        541
 112.8000        545
 113.2000        488
 113.6000        522
 114.0000        513
 114.4000        503
 114.8000        501
 115.2000        509
 115.6000        507
 116.0000        541
 116.4000        526
 116.8000        528
 117.2000        508
 117.6000        536
 118.0000        525
 118.4000        481
 118.8000        513
 119.2000        527
 119.6000        508
 120.0000        508
 120.4000        518
 120.8000        500
 121.2000        510
 121.6000        521
[...]
  72.4000        312
  72.8000        266
  73.2000        274
  73.6000        315
  74.0000        278
  74.4000        304
  74.8000        304
  75.2000        359
  75.6000        342
  76.0000        387
  76.4000        398
  76.8000        400
  77.2000        382
  77.6000        367
  78.0000        328
  78.4000        311
  78.8000        302
  79.2000        301
  79.6000        284
  80.0000        293
  80.4000        307
  80.8000        302
  81.2000        292
  81.6000        304
  82.0000        316
  82.4000        321
  82.8000        315
  83.2000        326
  83.6000        318
  84.0000        326
  84.4000        280
  84.8000        305
  85.2000        359
  85.6000        349
  86.0000        334
  86.4000        324
  86.8000        311
  87.2000        348
  87.6000        353
  88.0000        338
  88.4000        362
  88.8000        344
  89.2000        343
  89.6000        343
  90.0000        310
  90.4000        340
  90.8000        353
  91.2000        345
  91.6000        336
  92.0000        349
  92.4000        360
  92.8000        345
  93.2000        339
  93.6000        332
  94.0000        371
  94.4000        346
  94.8000        348
  95.2000        336
  95.6000        360
  96.0000        331
  96.4000        357
  96.8000        328
  97.2000        366
  97.6000        368
  98.0000        349
  98.4000        417
  98.8000        550
  99.2000        587
  99.6000        619
 100.0000        505
 100.4000        388
 100.8000        383
 101.2000        369
 101.6000        355
 102.0000        346
 102.4000        363
 102.8000        380
 103.2000        369
 103.6000        350
 104.0000        366
 104.4000        379
 104.8000        381
 105.2000        388
 105.6000        338
 106.0000        367
 106.4000        367
 106.8000        344
 107.2000        377
 107.6000        371
 108.0000        384
 108.4000        367
 108.8000        346
 109.2000        374
 109.6000        416
 110.0000        405
 110.4000        417
 110.8000        449
 111.2000        399
 111.6000        382
 112.0000        394
 112.4000        346
 112.8000        356
 113.2000        374
 113.6000        370
 114.0000        382
 114.4000        408
 114.8000        381
 115.2000        355
 115.6000        394
 116.0000        364
 116.4000        380
 116.8000        390
 117.2000        404
 117.6000        359
 118.0000        388
 118.4000        411
 118.8000        425
 119.2000        376
 119.6000        414
 120.0000        392
 120.4000        381
 120.8000        402
 121.2000        436
 121.6000        405
 122.0000        399
 122.4000        441
 122.8000        462
 123.2000        494
 123.6000        421
 124.0000        428
 124.4000        417
 124.8000        392
 125.2000        390
 125.6000        393
 126.0000        388
 126.4000        426
 126.8000        417
 127.2000        405
 127.6000        396
 128.0000        384
 128.4000        372
 128.8000        448
 129.2000        427
 129.6000        404
 130.0000        399

; Data for range 53
_DRIVE = COUPLED
_STEPTIME = 0.2
_STEPSIZE = 0.1
_STEPMODE = C
_START = 40
_THETA = 20
_2THETA = 40
_KHI = 80
_PHI = 0
_X = 0
_Y = 25
_Z = 0
_DETECTOR = 1
; Detector type : Scintillation counter
_HV = 687
_GAIN = 80
_LLD = 0.69
_ULD = 1.866
_DETECTORSLIT = unkn
_AUX1 = 0
_AUX2 = 0
_AUX3 = 0
_TIMESTARTED = 1.03e+004
_TEMP_RATE = -1
_TEMP_DELAY = -1
_KV = 35
_MA = 40
_RANGE_WL = 1.78897
_3DPLANE = 0
_V4_ADDITIONALDETECTOR = 0
_V4_D8_DIBNUM = 1
_V4_DETECTORNAME = "Detector 1"
_V4_TTLDETECTOR = None
_V4_DETECTORTYPE = 1
_V4_DETECTORFLAGS = 524545
_V4_DETECTORHV = 687
_V4_DETECTORGAIN = 80
_V4_DETECTORLLD1 = 0.69
_V4_DETECTORWW1 = 1.176
_V4_DETECTORLLD2 = 0
_V4_DETECTORWW2 = 0
_V4_DETECTORPS = 0
_V4_DETECTORDT = 0
_V4_DETECTORPILEUPTIME = 0
_V4_COUNTERS_MASK = 1
_V4_DRIVES_MASK = 0
_V4_ENCODERS_MASK = 0
_2THETACOUNTS = 1
; 2THETA  Cnt1_D1
  40.0000        139
  40.4000        157
  40.8000        147
  41.2000        138
  41.6000        144
  42.0000        147
  42.4000        171
  42.8000        236
  43.2000        250
  43.6000        230
  44.0000        171
  44.4000        179
  44.8000        170
  45.2000        167
  45.6000        164
  46.0000        151
  46.4000        159
  46.8000        141
  47.2000        170
  47.6000        177
  48.0000        170
  48.4000        174
  48.8000        157
  49.2000        162
  49.6000        171
  50.0000        222
  50.4000        258
  50.8000        344
  51.2000        347
  51.6000        364
  52.0000        555
  52.4000        591
  52.8000        518
  53.2000        352
  53.6000        235
  54.0000        221
  54.4000        206
  54.8000        185
  55.2000        206
  55.6000        204
  56.0000        188
  56.4000        197
  56.8000        199
  57.2000        210
  57.6000        185
  58.0000        204
  58.4000        210
  58.8000        201
  59.2000        201
  59.6000        207
  60.0000        237
  60.4000        220
  60.8000        210
  61.2000        188
  61.6000        186
  62.0000        236
  62.4000        224
  62.8000        203
  63.2000        197
  63.6000        243
  64.0000        203
  64.4000        234
  64.8000        218
  65.2000        237
  65.6000        225
  66.0000        244
  66.4000        258
  66.8000        220
  67.2000        244
  67.6000        230
  68.0000        241
  68.4000        236
  68.8000        231
  69.2000        254
  69.6000        262
  70.0000        250
  70.4000        232
  70.8000        217
  71.2000        226
  71.6000        224
  72.0000        246
  72.4000        235
  72.8000        218
  73.2000        247
  73.6000        237
  74.0000        231
  74.4000        269
  74.8000        259
  75.2000        231
  75.6000        261
  76.0000        247
  76.4000        274
  76.8000        282
  77.2000        285
  77.6000        331
  78.0000        269
  78.4000        290
  78.8000        245
  79.2000        253
  79.6000        273
  80.0000        271
  80.4000        282
  80.8000        272
  81.2000        281
  81.6000        283
  82.0000        286
  82.4000        271
  82.8000        310
  83.2000        262
  83.6000        259
  84.0000        263
  84.4000        282
  84.8000        274
  85.2000        283
  85.6000        288
  86.0000        283
  86.4000        291
  86.8000        283
  87.2000        280
  87.6000        302
  88.0000        274
  88.4000        287
  88.8000        311
  89.2000        278
  89.6000        267
  90.0000        316
  90.4000        293
  90.8000        307
  91.2000        310
  91.6000        336
  92.0000        314
  92.4000        339
  92.8000        280
  93.2000        300
  93.6000        316
  94.0000        315
  94.4000        316
  94.8000        334
  95.2000        334
  95.6000        299
  96.0000        305
  96.4000        324
  96.8000        333
  97.2000        341
  97.6000        313
  98.0000        349
  98.4000        380
  98.8000        445
  99.2000        490
  99.6000        457
 100.0000        500
 100.4000        383
 100.8000        337
 101.2000        378
 101.6000        331
 102.0000        364
 102.4000        379
 102.8000        308
 103.2000        350
 103.6000        360
 104.0000        347
 104.4000        362
 104.8000        369
 105.2000        358
 105.6000        351
 106.0000        360
 106.4000        399
 106.8000        378
 107.2000        391
 107.6000        380
 108.0000        375
 108.4000        388
 108.8000        364
 109.2000        377
 109.6000        416
 110.0000        383
 110.4000        398
 110.8000        384
 111.2000        385
 111.6000        412
 112.0000        359
 112.4000        368
 112.8000        374
 113.2000        385
 113.6000        383
 114.0000        359
 114.4000        380
 114.8000        403
 115.2000        417
 115.6000        377
 116.0000        349
 116.4000        391
 116.8000        371
 117.2000        373
 117.6000        384
 118.0000        412
 118.4000        400
 118.8000        407
 119.2000        417
 119.6000        404
 120.0000        391
 120.4000        403
 120.8000        348
 121.2000        412
 121.6000        410
 122.0000        437
 122.4000        470
 122.8000        449
 123.2000        456
 123.6000        463
 124.0000        501
 124.4000        445
 124.8000        424
 125.2000        397
 125.6000        422
 126.0000        416
 126.4000        441
 126.8000        381
 127.2000        426
 127.6000        393
 128.0000        378
 128.4000        374
 128.8000        364
 129.2000        372
 129.6000        362
 130.0000        413