File: exp_dat/old/exp_2013_11_11/04pct_100L.uxd
; (content of file C:\DIFFDAT1\GIFT\MDL\Seawoong Lee\20131104_MV8\equal_area_maxkhi080_n8_2th40_130_x25y25_100L.raw)
_FILEVERSION = 3
_SAMPLE =
_+SAMPLE =
_SITE = Korea
_USER = Admin
_GONIOMETER_CODE = 20
; Goniometer : D8 theta/2theta, stage : Unknown
_SAMPLE_CHANGER_CODE = 0
_ATTACHMENTS_CODE = 0
_GONIOMETER_RADIUS = 300
_FIXED_DIVSLIT = 1
_FIXED_SAMPLESLIT = 0
_SOLLER_SLITS = 2
_FIXED_DETSLIT = 0.1
_MONOCHROMATOR = 0
; Incident beam monochromator : None
_SOLLER_SLITS_2 = 2
_THIN_FILM = N
_BETA_FILTER = Y
_FIXED_ANTISLIT = 0.6
_ANALYZER_CODE = 0
; Received beam analyzer : None
_DATEMEASURED = "05-Nov-2013 18:58:38"
_WL_UNIT = A
_WL1 = 1.78897
_WL2 = 1.79285
_WL3 = 1.62079
_WLRATIO = 0.5
_ANODE = Co
_V4_INF_CREATOR = XRDWizard
_V4_INF_CREATOR_VERSION = V2.9.0.22
_V4_INF_WIZARD_VERSION = V2.9.0.22
_V4_INF_WIZARD_ADDINS = V2.9.0.22
_V4_INF_WIZARD_DOCTYPE = XRD
_V4_INF_OSUSER = Postech
_V4_INF_USER = Admin
_V4_INF_SITE = Korea

; Data for range 1
_DRIVE = COUPLED
_STEPTIME = 0.2
_STEPSIZE = 0.1
_STEPMODE = C
_START = 40
_THETA = 20
_2THETA = 40
_KHI = 0
_PHI = 0
_X = 25
_Y = 25
_Z = 0
_DETECTOR = 1
; Detector type : Scintillation counter
_HV = 687
_GAIN = 80
_LLD = 0.69
_ULD = 1.866
_DETECTORSLIT = unkn
_AUX1 = 0
_AUX2 = 0
_AUX3 = 0
_TIMESTARTED = 28
_TEMP_RATE = -1
_TEMP_DELAY = -1
_KV = 35
_MA = 40
_RANGE_WL = 1.78897
_3DPLANE = 0
_V4_ADDITIONALDETECTOR = 0
_V4_D8_DIBNUM = 1
_V4_DETECTORNAME = "Detector 1"
_V4_TTLDETECTOR = None
_V4_DETECTORTYPE = 1
_V4_DETECTORFLAGS = 524545
_V4_DETECTORHV = 687
_V4_DETECTORGAIN = 80
_V4_DETECTORLLD1 = 0.69
_V4_DETECTORWW1 = 1.176
_V4_DETECTORLLD2 = 0
_V4_DETECTORWW2 = 0
_V4_DETECTORPS = 0
_V4_DETECTORDT = 0
_V4_DETECTORPILEUPTIME = 0
_V4_COUNTERS_MASK = 1
_V4_DRIVES_MASK = 0
_V4_ENCODERS_MASK = 0
_2THETACOUNTS = 1
; 2THETA  Cnt1_D1
  40.0000        439
  40.4000        417
  40.8000        414
  41.2000        449
  41.6000        441
  42.0000        468
  42.4000        467
  42.8000        452
  43.2000        504
  43.6000        456
  44.0000        461
  44.4000        455
  44.8000        442
  45.2000        469
  45.6000        453
  46.0000        475
  46.4000        476
  46.8000        456
  47.2000        454
  47.6000        476
  48.0000        506
  48.4000        476
  48.8000        502
  49.2000        509
  49.6000        459
  50.0000        545
  50.4000        532
  50.8000        604
  51.2000        600
  51.6000        731
  52.0000       1595
  52.4000       1423
  52.8000        607
  53.2000        453
  53.6000        524
  54.0000        484
  54.4000        519
  54.8000        499
  55.2000        526
  55.6000        562
  56.0000        506
  56.4000        497
  56.8000        466
  57.2000        527
  57.6000        520
  58.0000        510
  58.4000        497
  58.8000        470
  59.2000        521
  59.6000        569
  60.0000        518
  60.4000        512
  60.8000        509
  61.2000        477
  61.6000        486
  62.0000        527
  62.4000        519
  62.8000        480
  63.2000        516
  63.6000        498
  64.0000        531
  64.4000        524
  64.8000        515
  65.2000        473
  65.6000        517
  66.0000        469
  66.4000        517
  66.8000        467
  67.2000        492
  67.6000        515
  68.0000        479
  68.4000        518
  68.8000        480
  69.2000        511
  69.6000        461
  70.0000        498
  70.4000        482
  70.8000        520
  71.2000        496
  71.6000        492
  72.0000        508
  72.4000        471
  72.8000        489
  73.2000        521
  73.6000        513
  74.0000        482
  74.4000        511
  74.8000        527
  75.2000        534
  75.6000        514
  76.0000        550
  76.4000        667
  76.8000        938
  77.2000        828
  77.6000        579
  78.0000        532
  78.4000        502
  78.8000        527
  79.2000        497
  79.6000        461
  80.0000        464
  80.4000        476
  80.8000        532
  81.2000        491
  81.6000        506
  82.0000        497
  82.4000        487
  82.8000        474
  83.2000        469
  83.6000        537
  84.0000        483
  84.4000        480
  84.8000        520
  85.2000        508
  85.6000        497
  86.0000        503
  86.4000        504
  86.8000        455
  87.2000        495
  87.6000        494
  88.0000        497
  88.4000        485
  88.8000        610
  89.2000        718
  89.6000        704
  90.0000        546
  90.4000        496
  90.8000        499
  91.2000        590
  91.6000        504
  92.0000        490
  92.4000        514
  92.8000        475
  93.2000        512
  93.6000        566
  94.0000        536
  94.4000        547
  94.8000        509
  95.2000        526
  95.6000        490
  96.0000        503
  96.4000        537
  96.8000        542
  97.2000        539
  97.6000        523
  98.0000        495
  98.4000        548
  98.8000        845
  99.2000       1251
  99.6000       1209
 100.0000        732
 100.4000        506
 100.8000        500
 101.2000        492
 101.6000        487
 102.0000        518
 102.4000        499
 102.8000        467
 103.2000        524
 103.6000        520
 104.0000        524
 104.4000        478
 104.8000        490
 105.2000        488
 105.6000        521
 106.0000        531
 106.4000        477
 106.8000        536
 107.2000        487
 107.6000        489
 108.0000        485
 108.4000        471
 108.8000        529
 109.2000        501
 109.6000        508
 110.0000        523
 110.4000        536
 110.8000        582
 111.2000        654
 111.6000        584
 112.0000        515
 112.4000        503
 112.8000        552
 113.2000        463
 113.6000        485
 114.0000        473
 114.4000        488
 114.8000        494
 115.2000        489
 115.6000        533
 116.0000        516
 116.4000        492
 116.8000        506
 117.2000        517
 117.6000        505
 118.0000        479
 118.4000        501
 118.8000        524
 119.2000        519
 119.6000        468
 120.0000        499
 120.4000        489
 120.8000        489
 121.2000        511
 121.6000        471
 122.0000        493
 122.4000        524
 122.8000        505
 123.2000        603
 123.6000        575
 124.0000        510
 124.4000        525
 124.8000        521
 125.2000        551
 125.6000        533
 126.0000        543
 126.4000        517
 126.8000        507
 127.2000        512
 127.6000        520
 128.0000        519
 128.4000        504
 128.8000        550
 129.2000        464
 129.6000        508
 130.0000        517

; Data for range 2
_DRIVE = COUPLED
_STEPTIME = 0.2
_STEPSIZE = 0.1
_STEPMODE = C
_START = 40
_THETA = 20
_2THETA = 40
_KHI = 10.5
_PHI = 60
_X = 25
_Y = 25
_Z = 0
_DETECTOR = 1
; Detector type : Scintillation counter
_HV = 687
_GAIN = 80
_LLD = 0.69
_ULD = 1.866
_DETECTORSLIT = unkn
_AUX1 = 0
_AUX2 = 0
_AUX3 = 0
_TIMESTARTED = 225
_TEMP_RATE = -1
_TEMP_DELAY = -1
_KV = 35
_MA = 40
_RANGE_WL = 1.78897
_3DPLANE = 0
_V4_ADDITIONALDETECTOR = 0
_V4_D8_DIBNUM = 1
_V4_DETECTORNAME = "Detector 1"
_V4_TTLDETECTOR = None
_V4_DETECTORTYPE = 1
_V4_DETECTORFLAGS = 524545
_V4_DETECTORHV = 687
_V4_DETECTORGAIN = 80
_V4_DETECTORLLD1 = 0.69
_V4_DETECTORWW1 = 1.176
_V4_DETECTORLLD2 = 0
_V4_DETECTORWW2 = 0
_V4_DETECTORPS = 0
_V4_DETECTORDT = 0
_V4_DETECTORPILEUPTIME = 0
_V4_COUNTERS_MASK = 1
_V4_DRIVES_MASK = 0
_V4_ENCODERS_MASK = 0
_2THETACOUNTS = 1
; 2THETA  Cnt1_D1
  40.0000        503
  40.4000        487
  40.8000        495
  41.2000        505
  41.6000        485
  42.0000        523
  42.4000        492
  42.8000        506
  43.2000        526
  43.6000        526
  44.0000        493
  44.4000        506
  44.8000        537
  45.2000        528
  45.6000        521
  46.0000        524
  46.4000        536
  46.8000        471
  47.2000        529
  47.6000        535
  48.0000        513
  48.4000        492
  48.8000        502
  49.2000        498
  49.6000        532
  50.0000        554
  50.4000        569
  50.8000        654
  51.2000        618
  51.6000        808
  52.0000       1454
  52.4000       1069
  52.8000        596
  53.2000        523
  53.6000        529
  54.0000        561
  54.4000        526
  54.8000        529
  55.2000        513
  55.6000        518
  56.0000        534
  56.4000        467
  56.8000        502
  57.2000        517
  57.6000        503
  58.0000        529
  58.4000        544
  58.8000        519
  59.2000        574
  59.6000        612
  60.0000        531
  60.4000        534
  60.8000        509
  61.2000        485
  61.6000        518
  62.0000        502
  62.4000        483
  62.8000        485
  63.2000        533
  63.6000        513
  64.0000        518
  64.4000        514
  64.8000        544
  65.2000        494
  65.6000        542
  66.0000        542
  66.4000        512
  66.8000        512
  67.2000        537
  67.6000        480
  68.0000        512
  68.4000        455
  68.8000        494
  69.2000        538
  69.6000        515
  70.0000        538
  70.4000        507
  70.8000        523
  71.2000        477
  71.6000        522
  72.0000        530
  72.4000        533
  72.8000        507
  73.2000        484
  73.6000        529
  74.0000        505
  74.4000        480
  74.8000        516
  75.2000        462
  75.6000        505
  76.0000        489
  76.4000        602
  76.8000        776
  77.2000        769
  77.6000        612
  78.0000        517
  78.4000        509
  78.8000        525
  79.2000        508
  79.6000        524
  80.0000        507
  80.4000        542
  80.8000        529
  81.2000        509
  81.6000        493
  82.0000        474
  82.4000        524
  82.8000        511
  83.2000        490
  83.6000        529
  84.0000        545
  84.4000        523
  84.8000        485
  85.2000        535
  85.6000        489
  86.0000        490
  86.4000        494
  86.8000        505
  87.2000        498
  87.6000        519
  88.0000        524
  88.4000        505
  88.8000        591
  89.2000        650
  89.6000        658
  90.0000        582
  90.4000        501
  90.8000        542
  91.2000        510
  91.6000        479
  92.0000        498
  92.4000        493
  92.8000        509
  93.2000        521
  93.6000        466
  94.0000        485
  94.4000        471
  94.8000        500
  95.2000        548
  95.6000        474
  96.0000        456
  96.4000        500
  96.8000        504
  97.2000        521
  97.6000        483
  98.0000        502
  98.4000        490
  98.8000        764
  99.2000       1137
  99.6000       1096
 100.0000        606
 100.4000        534
 100.8000        528
 101.2000        496
 101.6000        507
 102.0000        568
 102.4000        515
 102.8000        516
 103.2000        478
 103.6000        524
 104.0000        491
 104.4000        501
 104.8000        489
 105.2000        533
 105.6000        507
 106.0000        487
 106.4000        565
 106.8000        502
 107.2000        508
 107.6000        491
 108.0000        520
 108.4000        573
 108.8000        500
 109.2000        531
 109.6000        534
 110.0000        515
 110.4000        580
 110.8000        573
 111.2000        611
 111.6000        602
 112.0000        517
 112.4000        553
 112.8000        539
 113.2000        516
 113.6000        503
 114.0000        479
 114.4000        497
 114.8000        489
 115.2000        477
 115.6000        518
 116.0000        535
 116.4000        527
 116.8000        528
 117.2000        505
 117.6000        516
 118.0000        509
 118.4000        504
 118.8000        533
 119.2000        508
 119.6000        479
 120.0000        479
 120.4000        491
 120.8000        493
 121.2000        521
 121.6000        524
 122.0000        507
 122.4000        508
 122.8000        502
 123.2000        567
 123.6000        560
 124.0000        498
 124.4000        533
 124.8000        516
 125.2000        515
 125.6000        477
 126.0000        497
 126.4000        489
 126.8000        498
 127.2000        460
 127.6000        511
 128.0000        472
 128.4000        547
 128.8000        532
 129.2000        489
 129.6000        505
 130.0000        512

; Data for range 3
_DRIVE = COUPLED
_STEPTIME = 0.2
_STEPSIZE = 0.1
_STEPMODE = C
_START = 40
_THETA = 20
_2THETA = 40
_KHI = 18.3
_PHI = 90
_X = 25
_Y = 25
_Z = 0
_DETECTOR = 1
; Detector type : Scintillation counter
_HV = 687
_GAIN = 80
_LLD = 0.69
_ULD = 1.866
_DETECTORSLIT = unkn
_AUX1 = 0
_AUX2 = 0
_AUX3 = 0
_TIMESTARTED = 423
_TEMP_RATE = -1
_TEMP_DELAY = -1
_KV = 35
_MA = 40
_RANGE_WL = 1.78897
_3DPLANE = 0
_V4_ADDITIONALDETECTOR = 0
_V4_D8_DIBNUM = 1
_V4_DETECTORNAME = "Detector 1"
_V4_TTLDETECTOR = None
_V4_DETECTORTYPE = 1
_V4_DETECTORFLAGS = 524545
_V4_DETECTORHV = 687
_V4_DETECTORGAIN = 80
_V4_DETECTORLLD1 = 0.69
_V4_DETECTORWW1 = 1.176
_V4_DETECTORLLD2 = 0
_V4_DETECTORWW2 = 0
_V4_DETECTORPS = 0
_V4_DETECTORDT = 0
_V4_DETECTORPILEUPTIME = 0
_V4_COUNTERS_MASK = 1
_V4_DRIVES_MASK = 0
_V4_ENCODERS_MASK = 0
_2THETACOUNTS = 1
; 2THETA  Cnt1_D1
  40.0000        541
  40.4000        520
  40.8000        496
  41.2000        507
  41.6000        534
  42.0000        475
  42.4000        508
  42.8000        512
  43.2000        504
  43.6000        530
  44.0000        516
  44.4000        497
  44.8000        491
  45.2000        491
  45.6000        540
  46.0000        516
  46.4000        520
  46.8000        517
  47.2000        537
  47.6000        528
  48.0000        527
  48.4000        494
  48.8000        528
  49.2000        542
  49.6000        519
  50.0000        497
  50.4000        592
  50.8000        679
  51.2000        594
  51.6000        769
  52.0000       1231
  52.4000       1341
  52.8000        634
  53.2000        553
  53.6000        557
  54.0000        483
  54.4000        529
  54.8000        541
  55.2000        533
  55.6000        508
  56.0000        506
  56.4000        511
  56.8000        492
  57.2000        542
  57.6000        497
  58.0000        532
  58.4000        500
  58.8000        526
  59.2000        578
  59.6000        588
  60.0000        572
  60.4000        512
  60.8000        477
  61.2000        513
  61.6000        497
  62.0000        509
  62.4000        517
  62.8000        491
  63.2000        535
  63.6000        470
  64.0000        517
  64.4000        564
  64.8000        456
  65.2000        501
  65.6000        481
  66.0000        496
  66.4000        494
  66.8000        543
  67.2000        506
  67.6000        533
  68.0000        511
  68.4000        499
  68.8000        499
  69.2000        513
  69.6000        529
  70.0000        497
  70.4000        519
  70.8000        468
  71.2000        527
  71.6000        491
  72.0000        511
  72.4000        475
  72.8000        550
  73.2000        552
  73.6000        559
  74.0000        478
  74.4000        528
  74.8000        499
  75.2000        521
  75.6000        494
  76.0000        530
  76.4000        704
  76.8000        945
  77.2000        893
  77.6000        565
  78.0000        491
  78.4000        497
  78.8000        489
  79.2000        466
  79.6000        519
  80.0000        524
  80.4000        484
  80.8000        485
  81.2000        506
  81.6000        514
  82.0000        501
  82.4000        467
  82.8000        493
  83.2000        479
  83.6000        517
  84.0000        536
  84.4000        485
  84.8000        516
  85.2000        515
  85.6000        550
  86.0000        518
  86.4000        478
  86.8000        496
  87.2000        530
  87.6000        535
  88.0000        502
  88.4000        499
  88.8000        593
  89.2000        618
  89.6000        666
  90.0000        542
  90.4000        521
  90.8000        486
  91.2000        515
  91.6000        524
  92.0000        516
  92.4000        514
  92.8000        492
  93.2000        507
  93.6000        510
  94.0000        539
  94.4000        475
  94.8000        483
  95.2000        526
  95.6000        515
  96.0000        487
  96.4000        491
  96.8000        495
  97.2000        513
  97.6000        486
  98.0000        476
  98.4000        545
  98.8000        833
  99.2000       1151
  99.6000       1060
 100.0000        653
 100.4000        537
 100.8000        524
 101.2000        504
 101.6000        529
 102.0000        520
 102.4000        500
 102.8000        524
 103.2000        522
 103.6000        519
 104.0000        501
 104.4000        506
 104.8000        485
 105.2000        517
 105.6000        519
 106.0000        507
 106.4000        475
 106.8000        489
 107.2000        477
 107.6000        536
 108.0000        495
 108.4000        527
 108.8000        468
 109.2000        494
 109.6000        504
 110.0000        514
 110.4000        508
 110.8000        592
 111.2000        635
 111.6000        540
 112.0000        479
 112.4000        508
 112.8000        494
 113.2000        481
 113.6000        521
 114.0000        519
 114.4000        488
 114.8000        479
 115.2000        514
 115.6000        537
 116.0000        512
 116.4000        503
 116.8000        513
 117.2000        502
 117.6000        513
 118.0000        496
 118.4000        529
 118.8000        534
 119.2000        523
 119.6000        503
 120.0000        481
 120.4000        484
 120.8000        487
 121.2000        490
 121.6000        496
[...]
  72.4000        266
  72.8000        282
  73.2000        268
  73.6000        268
  74.0000        285
  74.4000        283
  74.8000        305
  75.2000        322
  75.6000        318
  76.0000        327
  76.4000        319
  76.8000        369
  77.2000        344
  77.6000        345
  78.0000        317
  78.4000        306
  78.8000        294
  79.2000        284
  79.6000        256
  80.0000        303
  80.4000        300
  80.8000        275
  81.2000        304
  81.6000        265
  82.0000        265
  82.4000        303
  82.8000        270
  83.2000        295
  83.6000        292
  84.0000        287
  84.4000        286
  84.8000        299
  85.2000        297
  85.6000        309
  86.0000        296
  86.4000        300
  86.8000        294
  87.2000        289
  87.6000        293
  88.0000        271
  88.4000        316
  88.8000        310
  89.2000        336
  89.6000        315
  90.0000        324
  90.4000        299
  90.8000        308
  91.2000        311
  91.6000        344
  92.0000        331
  92.4000        340
  92.8000        324
  93.2000        283
  93.6000        275
  94.0000        290
  94.4000        344
  94.8000        329
  95.2000        288
  95.6000        310
  96.0000        309
  96.4000        330
  96.8000        325
  97.2000        301
  97.6000        330
  98.0000        343
  98.4000        360
  98.8000        370
  99.2000        474
  99.6000        496
 100.0000        411
 100.4000        360
 100.8000        304
 101.2000        334
 101.6000        298
 102.0000        354
 102.4000        340
 102.8000        313
 103.2000        363
 103.6000        323
 104.0000        299
 104.4000        313
 104.8000        325
 105.2000        319
 105.6000        332
 106.0000        307
 106.4000        293
 106.8000        320
 107.2000        340
 107.6000        336
 108.0000        331
 108.4000        348
 108.8000        365
 109.2000        316
 109.6000        345
 110.0000        359
 110.4000        368
 110.8000        406
 111.2000        361
 111.6000        343
 112.0000        349
 112.4000        339
 112.8000        375
 113.2000        315
 113.6000        338
 114.0000        314
 114.4000        342
 114.8000        321
 115.2000        325
 115.6000        383
 116.0000        328
 116.4000        357
 116.8000        360
 117.2000        318
 117.6000        330
 118.0000        343
 118.4000        369
 118.8000        359
 119.2000        362
 119.6000        355
 120.0000        335
 120.4000        365
 120.8000        347
 121.2000        359
 121.6000        337
 122.0000        369
 122.4000        363
 122.8000        400
 123.2000        429
 123.6000        473
 124.0000        460
 124.4000        378
 124.8000        394
 125.2000        372
 125.6000        382
 126.0000        328
 126.4000        339
 126.8000        373
 127.2000        336
 127.6000        352
 128.0000        327
 128.4000        327
 128.8000        363
 129.2000        347
 129.6000        356
 130.0000        388

; Data for range 53
_DRIVE = COUPLED
_STEPTIME = 0.2
_STEPSIZE = 0.1
_STEPMODE = C
_START = 40
_THETA = 20
_2THETA = 40
_KHI = 80
_PHI = 0
_X = 25
_Y = 25
_Z = 0
_DETECTOR = 1
; Detector type : Scintillation counter
_HV = 687
_GAIN = 80
_LLD = 0.69
_ULD = 1.866
_DETECTORSLIT = unkn
_AUX1 = 0
_AUX2 = 0
_AUX3 = 0
_TIMESTARTED = 1.03e+004
_TEMP_RATE = -1
_TEMP_DELAY = -1
_KV = 35
_MA = 40
_RANGE_WL = 1.78897
_3DPLANE = 0
_V4_ADDITIONALDETECTOR = 0
_V4_D8_DIBNUM = 1
_V4_DETECTORNAME = "Detector 1"
_V4_TTLDETECTOR = None
_V4_DETECTORTYPE = 1
_V4_DETECTORFLAGS = 524545
_V4_DETECTORHV = 687
_V4_DETECTORGAIN = 80
_V4_DETECTORLLD1 = 0.69
_V4_DETECTORWW1 = 1.176
_V4_DETECTORLLD2 = 0
_V4_DETECTORWW2 = 0
_V4_DETECTORPS = 0
_V4_DETECTORDT = 0
_V4_DETECTORPILEUPTIME = 0
_V4_COUNTERS_MASK = 1
_V4_DRIVES_MASK = 0
_V4_ENCODERS_MASK = 0
_2THETACOUNTS = 1
; 2THETA  Cnt1_D1
  40.0000        154
  40.4000        146
  40.8000        162
  41.2000        154
  41.6000        146
  42.0000        158
  42.4000        194
  42.8000        251
  43.2000        286
  43.6000        259
  44.0000        215
  44.4000        163
  44.8000        142
  45.2000        163
  45.6000        159
  46.0000        161
  46.4000        150
  46.8000        177
  47.2000        157
  47.6000        171
  48.0000        159
  48.4000        185
  48.8000        165
  49.2000        176
  49.6000        199
  50.0000        224
  50.4000        308
  50.8000        345
  51.2000        332
  51.6000        371
  52.0000        592
  52.4000        667
  52.8000        537
  53.2000        328
  53.6000        180
  54.0000        183
  54.4000        191
  54.8000        190
  55.2000        185
  55.6000        214
  56.0000        170
  56.4000        176
  56.8000        184
  57.2000        192
  57.6000        197
  58.0000        204
  58.4000        177
  58.8000        185
  59.2000        202
  59.6000        210
  60.0000        214
  60.4000        185
  60.8000        176
  61.2000        199
  61.6000        171
  62.0000        203
  62.4000        188
  62.8000        197
  63.2000        194
  63.6000        199
  64.0000        234
  64.4000        207
  64.8000        198
  65.2000        179
  65.6000        186
  66.0000        200
  66.4000        205
  66.8000        237
  67.2000        214
  67.6000        186
  68.0000        185
  68.4000        200
  68.8000        213
  69.2000        250
  69.6000        223
  70.0000        201
  70.4000        215
  70.8000        207
  71.2000        223
  71.6000        215
  72.0000        178
  72.4000        207
  72.8000        203
  73.2000        197
  73.6000        210
  74.0000        248
  74.4000        217
  74.8000        239
  75.2000        233
  75.6000        250
  76.0000        215
  76.4000        256
  76.8000        271
  77.2000        288
  77.6000        264
  78.0000        238
  78.4000        221
  78.8000        221
  79.2000        222
  79.6000        223
  80.0000        241
  80.4000        244
  80.8000        247
  81.2000        231
  81.6000        228
  82.0000        248
  82.4000        241
  82.8000        261
  83.2000        232
  83.6000        240
  84.0000        261
  84.4000        259
  84.8000        238
  85.2000        216
  85.6000        259
  86.0000        232
  86.4000        229
  86.8000        220
  87.2000        262
  87.6000        240
  88.0000        245
  88.4000        276
  88.8000        252
  89.2000        265
  89.6000        285
  90.0000        253
  90.4000        235
  90.8000        279
  91.2000        270
  91.6000        263
  92.0000        286
  92.4000        245
  92.8000        271
  93.2000        267
  93.6000        271
  94.0000        265
  94.4000        310
  94.8000        289
  95.2000        281
  95.6000        292
  96.0000        281
  96.4000        290
  96.8000        290
  97.2000        285
  97.6000        268
  98.0000        311
  98.4000        343
  98.8000        362
  99.2000        399
  99.6000        453
 100.0000        370
 100.4000        348
 100.8000        318
 101.2000        299
 101.6000        311
 102.0000        289
 102.4000        298
 102.8000        310
 103.2000        319
 103.6000        316
 104.0000        309
 104.4000        333
 104.8000        308
 105.2000        293
 105.6000        298
 106.0000        301
 106.4000        347
 106.8000        328
 107.2000        342
 107.6000        307
 108.0000        371
 108.4000        296
 108.8000        314
 109.2000        312
 109.6000        314
 110.0000        349
 110.4000        368
 110.8000        373
 111.2000        383
 111.6000        384
 112.0000        324
 112.4000        353
 112.8000        319
 113.2000        385
 113.6000        342
 114.0000        309
 114.4000        369
 114.8000        336
 115.2000        369
 115.6000        350
 116.0000        375
 116.4000        366
 116.8000        363
 117.2000        369
 117.6000        343
 118.0000        362
 118.4000        376
 118.8000        373
 119.2000        372
 119.6000        355
 120.0000        368
 120.4000        348
 120.8000        350
 121.2000        374
 121.6000        349
 122.0000        367
 122.4000        400
 122.8000        472
 123.2000        495
 123.6000        492
 124.0000        444
 124.4000        436
 124.8000        410
 125.2000        343
 125.6000        355
 126.0000        374
 126.4000        354
 126.8000        377
 127.2000        403
 127.6000        390
 128.0000        372
 128.4000        342
 128.8000        397
 129.2000        341
 129.6000        379
 130.0000        361