File: exp_dat/old/exp_2013_11_11/05pct_100G.uxd
; (content of file C:\DIFFDAT1\GIFT\MDL\Seawoong Lee\20131104_MV8\equal_area_maxkhi080_n8_2th40_130_x00y-25_100g.raw)
_FILEVERSION = 3
_SAMPLE =
_+SAMPLE =
_SITE = Korea
_USER = Admin
_GONIOMETER_CODE = 20
; Goniometer : D8 theta/2theta, stage : Unknown
_SAMPLE_CHANGER_CODE = 0
_ATTACHMENTS_CODE = 0
_GONIOMETER_RADIUS = 300
_FIXED_DIVSLIT = 1
_FIXED_SAMPLESLIT = 0
_SOLLER_SLITS = 2
_FIXED_DETSLIT = 0.1
_MONOCHROMATOR = 0
; Incident beam monochromator : None
_SOLLER_SLITS_2 = 2
_THIN_FILM = N
_BETA_FILTER = Y
_FIXED_ANTISLIT = 0.6
_ANALYZER_CODE = 0
; Received beam analyzer : None
_DATEMEASURED = "05-Nov-2013 21:53:16"
_WL_UNIT = A
_WL1 = 1.78897
_WL2 = 1.79285
_WL3 = 1.62079
_WLRATIO = 0.5
_ANODE = Co
_V4_INF_CREATOR = XRDWizard
_V4_INF_CREATOR_VERSION = V2.9.0.22
_V4_INF_WIZARD_VERSION = V2.9.0.22
_V4_INF_WIZARD_ADDINS = V2.9.0.22
_V4_INF_WIZARD_DOCTYPE = XRD
_V4_INF_OSUSER = Postech
_V4_INF_USER = Admin
_V4_INF_SITE = Korea

; Data for range 1
_DRIVE = COUPLED
_STEPTIME = 0.2
_STEPSIZE = 0.1
_STEPMODE = C
_START = 40
_THETA = 20
_2THETA = 40
_KHI = 0
_PHI = 0
_X = 0
_Y = -25
_Z = 0
_DETECTOR = 1
; Detector type : Scintillation counter
_HV = 687
_GAIN = 80
_LLD = 0.69
_ULD = 1.866
_DETECTORSLIT = unkn
_AUX1 = 0
_AUX2 = 0
_AUX3 = 0
_TIMESTARTED = 28
_TEMP_RATE = -1
_TEMP_DELAY = -1
_KV = 35
_MA = 40
_RANGE_WL = 1.78897
_3DPLANE = 0
_V4_ADDITIONALDETECTOR = 0
_V4_D8_DIBNUM = 1
_V4_DETECTORNAME = "Detector 1"
_V4_TTLDETECTOR = None
_V4_DETECTORTYPE = 1
_V4_DETECTORFLAGS = 524545
_V4_DETECTORHV = 687
_V4_DETECTORGAIN = 80
_V4_DETECTORLLD1 = 0.69
_V4_DETECTORWW1 = 1.176
_V4_DETECTORLLD2 = 0
_V4_DETECTORWW2 = 0
_V4_DETECTORPS = 0
_V4_DETECTORDT = 0
_V4_DETECTORPILEUPTIME = 0
_V4_COUNTERS_MASK = 1
_V4_DRIVES_MASK = 0
_V4_ENCODERS_MASK = 0
_2THETACOUNTS = 1
; 2THETA  Cnt1_D1
  40.0000        501
  40.4000        454
  40.8000        502
  41.2000        486
  41.6000        510
  42.0000        491
  42.4000        480
  42.8000        475
  43.2000        498
  43.6000        472
  44.0000        514
  44.4000        474
  44.8000        506
  45.2000        479
  45.6000        496
  46.0000        515
  46.4000        481
  46.8000        516
  47.2000        493
  47.6000        502
  48.0000        499
  48.4000        515
  48.8000        538
  49.2000        507
  49.6000        509
  50.0000        515
  50.4000        582
  50.8000        563
  51.2000        563
  51.6000        696
  52.0000       1007
  52.4000        972
  52.8000        631
  53.2000        473
  53.6000        506
  54.0000        556
  54.4000        517
  54.8000        498
  55.2000        475
  55.6000        509
  56.0000        513
  56.4000        524
  56.8000        537
  57.2000        533
  57.6000        459
  58.0000        518
  58.4000        489
  58.8000        535
  59.2000        540
  59.6000        589
  60.0000        502
  60.4000        544
  60.8000        510
  61.2000        530
  61.6000        482
  62.0000        536
  62.4000        515
  62.8000        502
  63.2000        542
  63.6000        520
  64.0000        487
  64.4000        477
  64.8000        500
  65.2000        563
  65.6000        517
  66.0000        530
  66.4000        487
  66.8000        483
  67.2000        486
  67.6000        492
  68.0000        517
  68.4000        522
  68.8000        499
  69.2000        511
  69.6000        526
  70.0000        466
  70.4000        526
  70.8000        503
  71.2000        513
  71.6000        509
  72.0000        477
  72.4000        494
  72.8000        508
  73.2000        520
  73.6000        587
  74.0000        537
  74.4000        478
  74.8000        535
  75.2000        523
  75.6000        529
  76.0000        580
  76.4000        945
  76.8000       1112
  77.2000        937
  77.6000        607
  78.0000        540
  78.4000        509
  78.8000        499
  79.2000        511
  79.6000        503
  80.0000        498
  80.4000        483
  80.8000        497
  81.2000        471
  81.6000        529
  82.0000        511
  82.4000        537
  82.8000        508
  83.2000        530
  83.6000        520
  84.0000        501
  84.4000        506
  84.8000        495
  85.2000        486
  85.6000        517
  86.0000        534
  86.4000        520
  86.8000        516
  87.2000        512
  87.6000        498
  88.0000        503
  88.4000        517
  88.8000        557
  89.2000        641
  89.6000        671
  90.0000        567
  90.4000        556
  90.8000        543
  91.2000        519
  91.6000        560
  92.0000        514
  92.4000        512
  92.8000        509
  93.2000        502
  93.6000        512
  94.0000        463
  94.4000        495
  94.8000        488
  95.2000        545
  95.6000        537
  96.0000        478
  96.4000        549
  96.8000        535
  97.2000        528
  97.6000        513
  98.0000        568
  98.4000        635
  98.8000       1150
  99.2000       1515
  99.6000       1312
 100.0000        775
 100.4000        543
 100.8000        511
 101.2000        518
 101.6000        489
 102.0000        535
 102.4000        488
 102.8000        509
 103.2000        504
 103.6000        525
 104.0000        493
 104.4000        500
 104.8000        524
 105.2000        508
 105.6000        506
 106.0000        529
 106.4000        518
 106.8000        514
 107.2000        493
 107.6000        494
 108.0000        503
 108.4000        522
 108.8000        538
 109.2000        545
 109.6000        523
 110.0000        543
 110.4000        514
 110.8000        552
 111.2000        572
 111.6000        537
 112.0000        507
 112.4000        514
 112.8000        502
 113.2000        526
 113.6000        519
 114.0000        531
 114.4000        503
 114.8000        524
 115.2000        520
 115.6000        496
 116.0000        509
 116.4000        521
 116.8000        500
 117.2000        550
 117.6000        524
 118.0000        538
 118.4000        522
 118.8000        533
 119.2000        521
 119.6000        550
 120.0000        533
 120.4000        496
 120.8000        505
 121.2000        512
 121.6000        517
 122.0000        535
 122.4000        505
 122.8000        561
 123.2000        549
 123.6000        588
 124.0000        546
 124.4000        513
 124.8000        466
 125.2000        513
 125.6000        473
 126.0000        503
 126.4000        540
 126.8000        509
 127.2000        516
 127.6000        493
 128.0000        500
 128.4000        501
 128.8000        523
 129.2000        496
 129.6000        507
 130.0000        519

; Data for range 2
_DRIVE = COUPLED
_STEPTIME = 0.2
_STEPSIZE = 0.1
_STEPMODE = C
_START = 40
_THETA = 20
_2THETA = 40
_KHI = 10.5
_PHI = 60
_X = 0
_Y = -25
_Z = 0
_DETECTOR = 1
; Detector type : Scintillation counter
_HV = 687
_GAIN = 80
_LLD = 0.69
_ULD = 1.866
_DETECTORSLIT = unkn
_AUX1 = 0
_AUX2 = 0
_AUX3 = 0
_TIMESTARTED = 225
_TEMP_RATE = -1
_TEMP_DELAY = -1
_KV = 35
_MA = 40
_RANGE_WL = 1.78897
_3DPLANE = 0
_V4_ADDITIONALDETECTOR = 0
_V4_D8_DIBNUM = 1
_V4_DETECTORNAME = "Detector 1"
_V4_TTLDETECTOR = None
_V4_DETECTORTYPE = 1
_V4_DETECTORFLAGS = 524545
_V4_DETECTORHV = 687
_V4_DETECTORGAIN = 80
_V4_DETECTORLLD1 = 0.69
_V4_DETECTORWW1 = 1.176
_V4_DETECTORLLD2 = 0
_V4_DETECTORWW2 = 0
_V4_DETECTORPS = 0
_V4_DETECTORDT = 0
_V4_DETECTORPILEUPTIME = 0
_V4_COUNTERS_MASK = 1
_V4_DRIVES_MASK = 0
_V4_ENCODERS_MASK = 0
_2THETACOUNTS = 1
; 2THETA  Cnt1_D1
  40.0000        497
  40.4000        524
  40.8000        466
  41.2000        459
  41.6000        486
  42.0000        463
  42.4000        526
  42.8000        461
  43.2000        492
  43.6000        512
  44.0000        507
  44.4000        526
  44.8000        484
  45.2000        496
  45.6000        461
  46.0000        489
  46.4000        479
  46.8000        524
  47.2000        504
  47.6000        446
  48.0000        472
  48.4000        499
  48.8000        502
  49.2000        475
  49.6000        511
  50.0000        558
  50.4000        506
  50.8000        559
  51.2000        597
  51.6000        781
  52.0000       1150
  52.4000       1081
  52.8000        556
  53.2000        562
  53.6000        499
  54.0000        533
  54.4000        500
  54.8000        509
  55.2000        546
  55.6000        484
  56.0000        559
  56.4000        510
  56.8000        530
  57.2000        511
  57.6000        532
  58.0000        581
  58.4000        581
  58.8000        510
  59.2000        564
  59.6000        549
  60.0000        548
  60.4000        515
  60.8000        504
  61.2000        575
  61.6000        498
  62.0000        517
  62.4000        514
  62.8000        533
  63.2000        477
  63.6000        500
  64.0000        504
  64.4000        504
  64.8000        455
  65.2000        453
  65.6000        478
  66.0000        505
  66.4000        499
  66.8000        480
  67.2000        497
  67.6000        512
  68.0000        490
  68.4000        518
  68.8000        496
  69.2000        517
  69.6000        535
  70.0000        512
  70.4000        529
  70.8000        499
  71.2000        508
  71.6000        479
  72.0000        460
  72.4000        491
  72.8000        501
  73.2000        459
  73.6000        522
  74.0000        489
  74.4000        491
  74.8000        486
  75.2000        497
  75.6000        489
  76.0000        521
  76.4000        631
  76.8000        692
  77.2000        645
  77.6000        569
  78.0000        520
  78.4000        509
  78.8000        515
  79.2000        484
  79.6000        488
  80.0000        519
  80.4000        494
  80.8000        499
  81.2000        471
  81.6000        483
  82.0000        451
  82.4000        539
  82.8000        538
  83.2000        456
  83.6000        482
  84.0000        508
  84.4000        472
  84.8000        512
  85.2000        511
  85.6000        488
  86.0000        507
  86.4000        474
  86.8000        511
  87.2000        538
  87.6000        530
  88.0000        514
  88.4000        470
  88.8000        540
  89.2000        526
  89.6000        574
  90.0000        584
  90.4000        496
  90.8000        522
  91.2000        515
  91.6000        517
  92.0000        501
  92.4000        475
  92.8000        500
  93.2000        463
  93.6000        545
  94.0000        472
  94.4000        487
  94.8000        479
  95.2000        505
  95.6000        507
  96.0000        544
  96.4000        492
  96.8000        523
  97.2000        502
  97.6000        516
  98.0000        516
  98.4000        545
  98.8000        750
  99.2000        912
  99.6000        881
 100.0000        621
 100.4000        555
 100.8000        478
 101.2000        506
 101.6000        507
 102.0000        478
 102.4000        531
 102.8000        495
 103.2000        490
 103.6000        490
 104.0000        502
 104.4000        461
 104.8000        504
 105.2000        501
 105.6000        495
 106.0000        535
 106.4000        516
 106.8000        489
 107.2000        485
 107.6000        513
 108.0000        467
 108.4000        529
 108.8000        510
 109.2000        509
 109.6000        495
 110.0000        506
 110.4000        551
 110.8000        532
 111.2000        520
 111.6000        535
 112.0000        486
 112.4000        493
 112.8000        517
 113.2000        498
 113.6000        531
 114.0000        487
 114.4000        518
 114.8000        530
 115.2000        490
 115.6000        580
 116.0000        478
 116.4000        484
 116.8000        485
 117.2000        493
 117.6000        501
 118.0000        509
 118.4000        483
 118.8000        522
 119.2000        480
 119.6000        521
 120.0000        510
 120.4000        491
 120.8000        517
 121.2000        487
 121.6000        475
 122.0000        490
 122.4000        484
 122.8000        526
 123.2000        592
 123.6000        554
 124.0000        532
 124.4000        532
 124.8000        502
 125.2000        523
 125.6000        483
 126.0000        506
 126.4000        528
 126.8000        488
 127.2000        514
 127.6000        505
 128.0000        517
 128.4000        477
 128.8000        489
 129.2000        511
 129.6000        570
 130.0000        514

; Data for range 3
_DRIVE = COUPLED
_STEPTIME = 0.2
_STEPSIZE = 0.1
_STEPMODE = C
_START = 40
_THETA = 20
_2THETA = 40
_KHI = 18.3
_PHI = 90
_X = 0
_Y = -25
_Z = 0
_DETECTOR = 1
; Detector type : Scintillation counter
_HV = 687
_GAIN = 80
_LLD = 0.69
_ULD = 1.866
_DETECTORSLIT = unkn
_AUX1 = 0
_AUX2 = 0
_AUX3 = 0
_TIMESTARTED = 422
_TEMP_RATE = -1
_TEMP_DELAY = -1
_KV = 35
_MA = 40
_RANGE_WL = 1.78897
_3DPLANE = 0
_V4_ADDITIONALDETECTOR = 0
_V4_D8_DIBNUM = 1
_V4_DETECTORNAME = "Detector 1"
_V4_TTLDETECTOR = None
_V4_DETECTORTYPE = 1
_V4_DETECTORFLAGS = 524545
_V4_DETECTORHV = 687
_V4_DETECTORGAIN = 80
_V4_DETECTORLLD1 = 0.69
_V4_DETECTORWW1 = 1.176
_V4_DETECTORLLD2 = 0
_V4_DETECTORWW2 = 0
_V4_DETECTORPS = 0
_V4_DETECTORDT = 0
_V4_DETECTORPILEUPTIME = 0
_V4_COUNTERS_MASK = 1
_V4_DRIVES_MASK = 0
_V4_ENCODERS_MASK = 0
_2THETACOUNTS = 1
; 2THETA  Cnt1_D1
  40.0000        413
  40.4000        484
  40.8000        420
  41.2000        431
  41.6000        455
  42.0000        466
  42.4000        471
  42.8000        452
  43.2000        439
  43.6000        430
  44.0000        462
  44.4000        495
  44.8000        465
  45.2000        490
  45.6000        459
  46.0000        471
  46.4000        490
  46.8000        526
  47.2000        439
  47.6000        477
  48.0000        539
  48.4000        507
  48.8000        498
  49.2000        526
  49.6000        494
  50.0000        561
  50.4000        645
  50.8000        805
  51.2000        845
  51.6000       1250
  52.0000       2170
  52.4000       1836
  52.8000        696
  53.2000        517
  53.6000        537
  54.0000        522
  54.4000        531
  54.8000        528
  55.2000        538
  55.6000        526
  56.0000        503
  56.4000        535
  56.8000        504
  57.2000        519
  57.6000        539
  58.0000        486
  58.4000        518
  58.8000        577
  59.2000        579
  59.6000        569
  60.0000        526
  60.4000        538
  60.8000        539
  61.2000        517
  61.6000        497
  62.0000        510
  62.4000        533
  62.8000        494
  63.2000        477
  63.6000        489
  64.0000        497
  64.4000        465
  64.8000        503
  65.2000        498
  65.6000        529
  66.0000        477
  66.4000        499
  66.8000        527
  67.2000        529
  67.6000        518
  68.0000        480
  68.4000        495
  68.8000        497
  69.2000        551
  69.6000        517
  70.0000        480
  70.4000        501
  70.8000        493
  71.2000        549
  71.6000        494
  72.0000        507
  72.4000        505
  72.8000        535
  73.2000        513
  73.6000        491
  74.0000        525
  74.4000        476
  74.8000        482
  75.2000        516
  75.6000        507
  76.0000        486
  76.4000        530
  76.8000        540
  77.2000        534
  77.6000        539
  78.0000        489
  78.4000        480
  78.8000        499
  79.2000        511
  79.6000        516
  80.0000        508
  80.4000        543
  80.8000        518
  81.2000        533
  81.6000        509
  82.0000        491
  82.4000        486
  82.8000        504
  83.2000        526
  83.6000        466
  84.0000        482
  84.4000        502
  84.8000        528
  85.2000        441
  85.6000        504
  86.0000        511
  86.4000        511
  86.8000        516
  87.2000        528
  87.6000        501
  88.0000        487
  88.4000        510
  88.8000        553
  89.2000        509
  89.6000        551
  90.0000        501
  90.4000        529
  90.8000        505
  91.2000        501
  91.6000        516
  92.0000        496
  92.4000        488
  92.8000        516
  93.2000        445
  93.6000        519
  94.0000        477
  94.4000        477
  94.8000        505
  95.2000        491
  95.6000        448
  96.0000        508
  96.4000        491
  96.8000        515
  97.2000        481
  97.6000        519
  98.0000        519
  98.4000        536
  98.8000        637
  99.2000        761
  99.6000        815
 100.0000        631
 100.4000        537
 100.8000        512
 101.2000        505
 101.6000        526
 102.0000        503
 102.4000        487
 102.8000        504
 103.2000        491
 103.6000        488
 104.0000        522
 104.4000        520
 104.8000        499
 105.2000        527
 105.6000        503
 106.0000        469
 106.4000        500
 106.8000        521
 107.2000        511
 107.6000        480
 108.0000        515
 108.4000        490
 108.8000        496
 109.2000        512
 109.6000        521
 110.0000        500
 110.4000        528
 110.8000        523
 111.2000        586
 111.6000        521
 112.0000        482
 112.4000        500
 112.8000        515
 113.2000        515
 113.6000        482
 114.0000        510
 114.4000        503
 114.8000        488
 115.2000        514
 115.6000        513
 116.0000        562
 116.4000        503
 116.8000        515
 117.2000        527
 117.6000        518
 118.0000        522
 118.4000        547
 118.8000        524
 119.2000        576
 119.6000        524
 120.0000        532
 120.4000        525
 120.8000        492
 121.2000        493
 121.6000        501
[...]
  72.4000        201
  72.8000        215
  73.2000        241
  73.6000        231
  74.0000        254
  74.4000        222
  74.8000        224
  75.2000        232
  75.6000        283
  76.0000        241
  76.4000        259
  76.8000        282
  77.2000        303
  77.6000        279
  78.0000        279
  78.4000        233
  78.8000        241
  79.2000        273
  79.6000        244
  80.0000        243
  80.4000        216
  80.8000        250
  81.2000        260
  81.6000        245
  82.0000        234
  82.4000        229
  82.8000        236
  83.2000        261
  83.6000        245
  84.0000        237
  84.4000        240
  84.8000        262
  85.2000        240
  85.6000        254
  86.0000        248
  86.4000        265
  86.8000        250
  87.2000        231
  87.6000        266
  88.0000        250
  88.4000        253
  88.8000        233
  89.2000        257
  89.6000        268
  90.0000        244
  90.4000        267
  90.8000        277
  91.2000        265
  91.6000        242
  92.0000        308
  92.4000        355
  92.8000        319
  93.2000        288
  93.6000        264
  94.0000        241
  94.4000        224
  94.8000        253
  95.2000        236
  95.6000        272
  96.0000        229
  96.4000        254
  96.8000        273
  97.2000        277
  97.6000        269
  98.0000        279
  98.4000        315
  98.8000        382
  99.2000        445
  99.6000        417
 100.0000        353
 100.4000        339
 100.8000        285
 101.2000        250
 101.6000        273
 102.0000        299
 102.4000        244
 102.8000        259
 103.2000        281
 103.6000        297
 104.0000        252
 104.4000        270
 104.8000        311
 105.2000        289
 105.6000        258
 106.0000        242
 106.4000        250
 106.8000        252
 107.2000        286
 107.6000        273
 108.0000        249
 108.4000        285
 108.8000        267
 109.2000        303
 109.6000        281
 110.0000        296
 110.4000        291
 110.8000        299
 111.2000        284
 111.6000        290
 112.0000        331
 112.4000        270
 112.8000        297
 113.2000        319
 113.6000        272
 114.0000        272
 114.4000        268
 114.8000        302
 115.2000        277
 115.6000        276
 116.0000        291
 116.4000        257
 116.8000        274
 117.2000        264
 117.6000        286
 118.0000        313
 118.4000        307
 118.8000        298
 119.2000        283
 119.6000        289
 120.0000        303
 120.4000        280
 120.8000        271
 121.2000        272
 121.6000        310
 122.0000        287
 122.4000        357
 122.8000        375
 123.2000        350
 123.6000        359
 124.0000        367
 124.4000        315
 124.8000        281
 125.2000        310
 125.6000        301
 126.0000        295
 126.4000        300
 126.8000        309
 127.2000        297
 127.6000        286
 128.0000        288
 128.4000        305
 128.8000        333
 129.2000        289
 129.6000        321
 130.0000        324

; Data for range 53
_DRIVE = COUPLED
_STEPTIME = 0.2
_STEPSIZE = 0.1
_STEPMODE = C
_START = 40
_THETA = 20
_2THETA = 40
_KHI = 80
_PHI = 0
_X = 0
_Y = -25
_Z = 0
_DETECTOR = 1
; Detector type : Scintillation counter
_HV = 687
_GAIN = 80
_LLD = 0.69
_ULD = 1.866
_DETECTORSLIT = unkn
_AUX1 = 0
_AUX2 = 0
_AUX3 = 0
_TIMESTARTED = 1.03e+004
_TEMP_RATE = -1
_TEMP_DELAY = -1
_KV = 35
_MA = 40
_RANGE_WL = 1.78897
_3DPLANE = 0
_V4_ADDITIONALDETECTOR = 0
_V4_D8_DIBNUM = 1
_V4_DETECTORNAME = "Detector 1"
_V4_TTLDETECTOR = None
_V4_DETECTORTYPE = 1
_V4_DETECTORFLAGS = 524545
_V4_DETECTORHV = 687
_V4_DETECTORGAIN = 80
_V4_DETECTORLLD1 = 0.69
_V4_DETECTORWW1 = 1.176
_V4_DETECTORLLD2 = 0
_V4_DETECTORWW2 = 0
_V4_DETECTORPS = 0
_V4_DETECTORDT = 0
_V4_DETECTORPILEUPTIME = 0
_V4_COUNTERS_MASK = 1
_V4_DRIVES_MASK = 0
_V4_ENCODERS_MASK = 0
_2THETACOUNTS = 1
; 2THETA  Cnt1_D1
  40.0000        137
  40.4000        158
  40.8000        144
  41.2000        169
  41.6000        140
  42.0000        173
  42.4000        125
  42.8000        163
  43.2000        218
  43.6000        214
  44.0000        190
  44.4000        169
  44.8000        177
  45.2000        138
  45.6000        162
  46.0000        163
  46.4000        163
  46.8000        150
  47.2000        169
  47.6000        170
  48.0000        161
  48.4000        165
  48.8000        165
  49.2000        168
  49.6000        183
  50.0000        205
  50.4000        204
  50.8000        278
  51.2000        312
  51.6000        455
  52.0000        659
  52.4000        743
  52.8000        540
  53.2000        294
  53.6000        175
  54.0000        180
  54.4000        193
  54.8000        185
  55.2000        190
  55.6000        188
  56.0000        182
  56.4000        171
  56.8000        170
  57.2000        182
  57.6000        183
  58.0000        201
  58.4000        202
  58.8000        202
  59.2000        194
  59.6000        218
  60.0000        207
  60.4000        170
  60.8000        199
  61.2000        156
  61.6000        165
  62.0000        192
  62.4000        191
  62.8000        200
  63.2000        195
  63.6000        223
  64.0000        200
  64.4000        217
  64.8000        192
  65.2000        204
  65.6000        181
  66.0000        224
  66.4000        191
  66.8000        193
  67.2000        194
  67.6000        196
  68.0000        202
  68.4000        179
  68.8000        192
  69.2000        224
  69.6000        206
  70.0000        218
  70.4000        210
  70.8000        206
  71.2000        214
  71.6000        221
  72.0000        224
  72.4000        218
  72.8000        228
  73.2000        233
  73.6000        222
  74.0000        221
  74.4000        247
  74.8000        229
  75.2000        234
  75.6000        247
  76.0000        225
  76.4000        265
  76.8000        255
  77.2000        273
  77.6000        269
  78.0000        261
  78.4000        217
  78.8000        245
  79.2000        226
  79.6000        228
  80.0000        246
  80.4000        228
  80.8000        213
  81.2000        237
  81.6000        239
  82.0000        241
  82.4000        248
  82.8000        236
  83.2000        246
  83.6000        238
  84.0000        244
  84.4000        249
  84.8000        244
  85.2000        270
  85.6000        244
  86.0000        277
  86.4000        279
  86.8000        270
  87.2000        257
  87.6000        271
  88.0000        267
  88.4000        281
  88.8000        268
  89.2000        268
  89.6000        275
  90.0000        270
  90.4000        270
  90.8000        268
  91.2000        269
  91.6000        290
  92.0000        271
  92.4000        274
  92.8000        261
  93.2000        288
  93.6000        290
  94.0000        306
  94.4000        266
  94.8000        297
  95.2000        265
  95.6000        271
  96.0000        304
  96.4000        299
  96.8000        275
  97.2000        306
  97.6000        289
  98.0000        301
  98.4000        351
  98.8000        464
  99.2000        508
  99.6000        483
 100.0000        435
 100.4000        349
 100.8000        321
 101.2000        298
 101.6000        287
 102.0000        327
 102.4000        306
 102.8000        311
 103.2000        293
 103.6000        307
 104.0000        329
 104.4000        287
 104.8000        308
 105.2000        271
 105.6000        340
 106.0000        291
 106.4000        343
 106.8000        319
 107.2000        302
 107.6000        326
 108.0000        301
 108.4000        333
 108.8000        301
 109.2000        303
 109.6000        296
 110.0000        336
 110.4000        352
 110.8000        353
 111.2000        334
 111.6000        329
 112.0000        323
 112.4000        292
 112.8000        330
 113.2000        332
 113.6000        333
 114.0000        350
 114.4000        314
 114.8000        317
 115.2000        333
 115.6000        337
 116.0000        333
 116.4000        386
 116.8000        346
 117.2000        325
 117.6000        305
 118.0000        374
 118.4000        356
 118.8000        324
 119.2000        341
 119.6000        323
 120.0000        343
 120.4000        313
 120.8000        322
 121.2000        315
 121.6000        350
 122.0000        356
 122.4000        370
 122.8000        385
 123.2000        453
 123.6000        417
 124.0000        377
 124.4000        370
 124.8000        341
 125.2000        318
 125.6000        328
 126.0000        348
 126.4000        350
 126.8000        322
 127.2000        329
 127.6000        344
 128.0000        332
 128.4000        337
 128.8000        309
 129.2000        328
 129.6000        318
 130.0000        352