File: exp_dat/old/exp_2013_11_11/06pct_50L.uxd
; (content of file C:\DIFFDAT1\GIFT\MDL\Seawoong Lee\20131104_MV8\equal_area_maxkhi080_n8_2th40_130_x25y-25_50L.RAW)
_FILEVERSION = 3
_SAMPLE =
_+SAMPLE =
_SITE = Korea
_USER = Admin
_GONIOMETER_CODE = 20
; Goniometer : D8 theta/2theta, stage : Unknown
_SAMPLE_CHANGER_CODE = 0
_ATTACHMENTS_CODE = 0
_GONIOMETER_RADIUS = 300
_FIXED_DIVSLIT = 1
_FIXED_SAMPLESLIT = 0
_SOLLER_SLITS = 2
_FIXED_DETSLIT = 0.1
_MONOCHROMATOR = 0
; Incident beam monochromator : None
_SOLLER_SLITS_2 = 2
_THIN_FILM = N
_BETA_FILTER = Y
_FIXED_ANTISLIT = 0.6
_ANALYZER_CODE = 0
; Received beam analyzer : None
_DATEMEASURED = "05-Nov-2013 13:09:24"
_WL_UNIT = A
_WL1 = 1.78897
_WL2 = 1.79285
_WL3 = 1.62079
_WLRATIO = 0.5
_ANODE = Co
_V4_INF_CREATOR = XRDWizard
_V4_INF_CREATOR_VERSION = V2.9.0.22
_V4_INF_WIZARD_VERSION = V2.9.0.22
_V4_INF_WIZARD_ADDINS = V2.9.0.22
_V4_INF_WIZARD_DOCTYPE = XRD
_V4_INF_OSUSER = Postech
_V4_INF_USER = Admin
_V4_INF_SITE = Korea

; Data for range 1
_DRIVE = COUPLED
_STEPTIME = 0.2
_STEPSIZE = 0.1
_STEPMODE = C
_START = 40
_THETA = 20
_2THETA = 40
_KHI = 0
_PHI = 0
_X = 25
_Y = -25
_Z = 0
_DETECTOR = 1
; Detector type : Scintillation counter
_HV = 687
_GAIN = 80
_LLD = 0.69
_ULD = 1.866
_DETECTORSLIT = unkn
_AUX1 = 0
_AUX2 = 0
_AUX3 = 0
_TIMESTARTED = 12
_TEMP_RATE = -1
_TEMP_DELAY = -1
_KV = 35
_MA = 40
_RANGE_WL = 1.78897
_3DPLANE = 0
_V4_ADDITIONALDETECTOR = 0
_V4_D8_DIBNUM = 1
_V4_DETECTORNAME = "Detector 1"
_V4_TTLDETECTOR = None
_V4_DETECTORTYPE = 1
_V4_DETECTORFLAGS = 524545
_V4_DETECTORHV = 687
_V4_DETECTORGAIN = 80
_V4_DETECTORLLD1 = 0.69
_V4_DETECTORWW1 = 1.176
_V4_DETECTORLLD2 = 0
_V4_DETECTORWW2 = 0
_V4_DETECTORPS = 0
_V4_DETECTORDT = 0
_V4_DETECTORPILEUPTIME = 0
_V4_COUNTERS_MASK = 1
_V4_DRIVES_MASK = 0
_V4_ENCODERS_MASK = 0
_2THETACOUNTS = 1
; 2THETA  Cnt1_D1
  40.0000        483
  40.4000        507
  40.8000        484
  41.2000        505
  41.6000        514
  42.0000        525
  42.4000        525
  42.8000        468
  43.2000        507
  43.6000        530
  44.0000        492
  44.4000        470
  44.8000        544
  45.2000        544
  45.6000        521
  46.0000        540
  46.4000        521
  46.8000        480
  47.2000        496
  47.6000        530
  48.0000        548
  48.4000        510
  48.8000        569
  49.2000        526
  49.6000        501
  50.0000        514
  50.4000        564
  50.8000        587
  51.2000        565
  51.6000        673
  52.0000       1227
  52.4000       1052
  52.8000        590
  53.2000        519
  53.6000        513
  54.0000        498
  54.4000        501
  54.8000        531
  55.2000        494
  55.6000        487
  56.0000        505
  56.4000        516
  56.8000        503
  57.2000        493
  57.6000        554
  58.0000        527
  58.4000        512
  58.8000        508
  59.2000        544
  59.6000        581
  60.0000        514
  60.4000        499
  60.8000        486
  61.2000        531
  61.6000        490
  62.0000        518
  62.4000        503
  62.8000        525
  63.2000        571
  63.6000        534
  64.0000        541
  64.4000        512
  64.8000        503
  65.2000        519
  65.6000        553
  66.0000        461
  66.4000        547
  66.8000        499
  67.2000        504
  67.6000        518
  68.0000        531
  68.4000        491
  68.8000        547
  69.2000        484
  69.6000        502
  70.0000        499
  70.4000        480
  70.8000        510
  71.2000        494
  71.6000        462
  72.0000        538
  72.4000        521
  72.8000        492
  73.2000        542
  73.6000        528
  74.0000        516
  74.4000        518
  74.8000        450
  75.2000        507
  75.6000        542
  76.0000        525
  76.4000        643
  76.8000        934
  77.2000        873
  77.6000        622
  78.0000        514
  78.4000        526
  78.8000        524
  79.2000        533
  79.6000        511
  80.0000        518
  80.4000        477
  80.8000        525
  81.2000        508
  81.6000        505
  82.0000        502
  82.4000        517
  82.8000        466
  83.2000        546
  83.6000        487
  84.0000        486
  84.4000        504
  84.8000        529
  85.2000        488
  85.6000        509
  86.0000        516
  86.4000        462
  86.8000        503
  87.2000        476
  87.6000        503
  88.0000        498
  88.4000        505
  88.8000        603
  89.2000        724
  89.6000        692
  90.0000        559
  90.4000        572
  90.8000        489
  91.2000        522
  91.6000        509
  92.0000        523
  92.4000        497
  92.8000        516
  93.2000        468
  93.6000        541
  94.0000        495
  94.4000        491
  94.8000        487
  95.2000        518
  95.6000        544
  96.0000        478
  96.4000        492
  96.8000        480
  97.2000        531
  97.6000        529
  98.0000        575
  98.4000        516
  98.8000        858
  99.2000       1440
  99.6000       1409
 100.0000        717
 100.4000        530
 100.8000        512
 101.2000        563
 101.6000        522
 102.0000        486
 102.4000        481
 102.8000        552
 103.2000        553
 103.6000        511
 104.0000        535
 104.4000        500
 104.8000        522
 105.2000        501
 105.6000        488
 106.0000        524
 106.4000        524
 106.8000        512
 107.2000        533
 107.6000        489
 108.0000        493
 108.4000        530
 108.8000        517
 109.2000        522
 109.6000        498
 110.0000        504
 110.4000        586
 110.8000        567
 111.2000        602
 111.6000        536
 112.0000        511
 112.4000        540
 112.8000        524
 113.2000        555
 113.6000        556
 114.0000        504
 114.4000        488
 114.8000        497
 115.2000        495
 115.6000        450
 116.0000        478
 116.4000        459
 116.8000        465
 117.2000        495
 117.6000        507
 118.0000        506
 118.4000        535
 118.8000        489
 119.2000        491
 119.6000        543
 120.0000        560
 120.4000        512
 120.8000        467
 121.2000        547
 121.6000        506
 122.0000        479
 122.4000        483
 122.8000        518
 123.2000        548
 123.6000        565
 124.0000        564
 124.4000        510
 124.8000        468
 125.2000        493
 125.6000        494
 126.0000        508
 126.4000        509
 126.8000        481
 127.2000        509
 127.6000        532
 128.0000        537
 128.4000        483
 128.8000        520
 129.2000        493
 129.6000        511
 130.0000        530

; Data for range 2
_DRIVE = COUPLED
_STEPTIME = 0.2
_STEPSIZE = 0.1
_STEPMODE = C
_START = 40
_THETA = 20
_2THETA = 40
_KHI = 10.5
_PHI = 60
_X = 25
_Y = -25
_Z = 0
_DETECTOR = 1
; Detector type : Scintillation counter
_HV = 687
_GAIN = 80
_LLD = 0.69
_ULD = 1.866
_DETECTORSLIT = unkn
_AUX1 = 0
_AUX2 = 0
_AUX3 = 0
_TIMESTARTED = 210
_TEMP_RATE = -1
_TEMP_DELAY = -1
_KV = 35
_MA = 40
_RANGE_WL = 1.78897
_3DPLANE = 0
_V4_ADDITIONALDETECTOR = 0
_V4_D8_DIBNUM = 1
_V4_DETECTORNAME = "Detector 1"
_V4_TTLDETECTOR = None
_V4_DETECTORTYPE = 1
_V4_DETECTORFLAGS = 524545
_V4_DETECTORHV = 687
_V4_DETECTORGAIN = 80
_V4_DETECTORLLD1 = 0.69
_V4_DETECTORWW1 = 1.176
_V4_DETECTORLLD2 = 0
_V4_DETECTORWW2 = 0
_V4_DETECTORPS = 0
_V4_DETECTORDT = 0
_V4_DETECTORPILEUPTIME = 0
_V4_COUNTERS_MASK = 1
_V4_DRIVES_MASK = 0
_V4_ENCODERS_MASK = 0
_2THETACOUNTS = 1
; 2THETA  Cnt1_D1
  40.0000        516
  40.4000        562
  40.8000        527
  41.2000        517
  41.6000        503
  42.0000        525
  42.4000        503
  42.8000        514
  43.2000        536
  43.6000        540
  44.0000        485
  44.4000        470
  44.8000        550
  45.2000        554
  45.6000        551
  46.0000        518
  46.4000        525
  46.8000        511
  47.2000        495
  47.6000        491
  48.0000        465
  48.4000        549
  48.8000        524
  49.2000        479
  49.6000        511
  50.0000        486
  50.4000        589
  50.8000        629
  51.2000        675
  51.6000        689
  52.0000       1194
  52.4000       1142
  52.8000        562
  53.2000        552
  53.6000        502
  54.0000        514
  54.4000        547
  54.8000        489
  55.2000        475
  55.6000        505
  56.0000        499
  56.4000        525
  56.8000        546
  57.2000        520
  57.6000        514
  58.0000        514
  58.4000        493
  58.8000        502
  59.2000        607
  59.6000        611
  60.0000        507
  60.4000        526
  60.8000        536
  61.2000        506
  61.6000        524
  62.0000        508
  62.4000        543
  62.8000        527
  63.2000        504
  63.6000        487
  64.0000        535
  64.4000        513
  64.8000        491
  65.2000        513
  65.6000        530
  66.0000        509
  66.4000        485
  66.8000        502
  67.2000        458
  67.6000        489
  68.0000        493
  68.4000        550
  68.8000        517
  69.2000        497
  69.6000        512
  70.0000        535
  70.4000        480
  70.8000        497
  71.2000        517
  71.6000        542
  72.0000        524
  72.4000        503
  72.8000        502
  73.2000        496
  73.6000        537
  74.0000        542
  74.4000        466
  74.8000        515
  75.2000        545
  75.6000        488
  76.0000        502
  76.4000        556
  76.8000        716
  77.2000        636
  77.6000        502
  78.0000        487
  78.4000        474
  78.8000        489
  79.2000        488
  79.6000        522
  80.0000        489
  80.4000        519
  80.8000        520
  81.2000        495
  81.6000        486
  82.0000        489
  82.4000        512
  82.8000        458
  83.2000        517
  83.6000        487
  84.0000        487
  84.4000        480
  84.8000        483
  85.2000        543
  85.6000        512
  86.0000        582
  86.4000        529
  86.8000        515
  87.2000        503
  87.6000        499
  88.0000        540
  88.4000        528
  88.8000        564
  89.2000        633
  89.6000        629
  90.0000        542
  90.4000        528
  90.8000        529
  91.2000        491
  91.6000        481
  92.0000        523
  92.4000        504
  92.8000        474
  93.2000        552
  93.6000        490
  94.0000        533
  94.4000        518
  94.8000        533
  95.2000        540
  95.6000        489
  96.0000        525
  96.4000        495
  96.8000        481
  97.2000        460
  97.6000        506
  98.0000        508
  98.4000        515
  98.8000        678
  99.2000        976
  99.6000        958
 100.0000        630
 100.4000        551
 100.8000        523
 101.2000        536
 101.6000        486
 102.0000        493
 102.4000        506
 102.8000        511
 103.2000        535
 103.6000        535
 104.0000        488
 104.4000        495
 104.8000        503
 105.2000        504
 105.6000        492
 106.0000        518
 106.4000        508
 106.8000        491
 107.2000        512
 107.6000        489
 108.0000        526
 108.4000        481
 108.8000        499
 109.2000        476
 109.6000        519
 110.0000        473
 110.4000        578
 110.8000        575
 111.2000        555
 111.6000        505
 112.0000        496
 112.4000        486
 112.8000        517
 113.2000        533
 113.6000        490
 114.0000        536
 114.4000        517
 114.8000        512
 115.2000        512
 115.6000        501
 116.0000        474
 116.4000        536
 116.8000        484
 117.2000        507
 117.6000        501
 118.0000        454
 118.4000        502
 118.8000        543
 119.2000        515
 119.6000        509
 120.0000        495
 120.4000        442
 120.8000        509
 121.2000        522
 121.6000        487
 122.0000        495
 122.4000        466
 122.8000        567
 123.2000        512
 123.6000        563
 124.0000        534
 124.4000        486
 124.8000        516
 125.2000        465
 125.6000        566
 126.0000        483
 126.4000        511
 126.8000        479
 127.2000        513
 127.6000        494
 128.0000        497
 128.4000        477
 128.8000        477
 129.2000        529
 129.6000        500
 130.0000        543

; Data for range 3
_DRIVE = COUPLED
_STEPTIME = 0.2
_STEPSIZE = 0.1
_STEPMODE = C
_START = 40
_THETA = 20
_2THETA = 40
_KHI = 18.3
_PHI = 90
_X = 25
_Y = -25
_Z = 0
_DETECTOR = 1
; Detector type : Scintillation counter
_HV = 687
_GAIN = 80
_LLD = 0.69
_ULD = 1.866
_DETECTORSLIT = unkn
_AUX1 = 0
_AUX2 = 0
_AUX3 = 0
_TIMESTARTED = 407
_TEMP_RATE = -1
_TEMP_DELAY = -1
_KV = 35
_MA = 40
_RANGE_WL = 1.78897
_3DPLANE = 0
_V4_ADDITIONALDETECTOR = 0
_V4_D8_DIBNUM = 1
_V4_DETECTORNAME = "Detector 1"
_V4_TTLDETECTOR = None
_V4_DETECTORTYPE = 1
_V4_DETECTORFLAGS = 524545
_V4_DETECTORHV = 687
_V4_DETECTORGAIN = 80
_V4_DETECTORLLD1 = 0.69
_V4_DETECTORWW1 = 1.176
_V4_DETECTORLLD2 = 0
_V4_DETECTORWW2 = 0
_V4_DETECTORPS = 0
_V4_DETECTORDT = 0
_V4_DETECTORPILEUPTIME = 0
_V4_COUNTERS_MASK = 1
_V4_DRIVES_MASK = 0
_V4_ENCODERS_MASK = 0
_2THETACOUNTS = 1
; 2THETA  Cnt1_D1
  40.0000        530
  40.4000        477
  40.8000        490
  41.2000        559
  41.6000        494
  42.0000        540
  42.4000        529
  42.8000        520
  43.2000        517
  43.6000        537
  44.0000        503
  44.4000        539
  44.8000        517
  45.2000        552
  45.6000        529
  46.0000        529
  46.4000        529
  46.8000        506
  47.2000        539
  47.6000        572
  48.0000        465
  48.4000        515
  48.8000        532
  49.2000        573
  49.6000        560
  50.0000        543
  50.4000        822
  50.8000       1038
  51.2000        910
  51.6000       1239
  52.0000       2708
  52.4000       2538
  52.8000        707
  53.2000        532
  53.6000        534
  54.0000        557
  54.4000        551
  54.8000        512
  55.2000        507
  55.6000        521
  56.0000        533
  56.4000        503
  56.8000        533
  57.2000        580
  57.6000        549
  58.0000        529
  58.4000        516
  58.8000        550
  59.2000        659
  59.6000        702
  60.0000        589
  60.4000        529
  60.8000        547
  61.2000        519
  61.6000        520
  62.0000        499
  62.4000        484
  62.8000        499
  63.2000        498
  63.6000        525
  64.0000        489
  64.4000        484
  64.8000        524
  65.2000        491
  65.6000        506
  66.0000        511
  66.4000        499
  66.8000        517
  67.2000        491
  67.6000        482
  68.0000        504
  68.4000        485
  68.8000        540
  69.2000        505
  69.6000        527
  70.0000        505
  70.4000        478
  70.8000        569
  71.2000        499
  71.6000        466
  72.0000        480
  72.4000        459
  72.8000        488
  73.2000        489
  73.6000        516
  74.0000        532
  74.4000        534
  74.8000        518
  75.2000        476
  75.6000        507
  76.0000        479
  76.4000        539
  76.8000        469
  77.2000        559
  77.6000        526
  78.0000        476
  78.4000        517
  78.8000        516
  79.2000        526
  79.6000        521
  80.0000        490
  80.4000        504
  80.8000        513
  81.2000        491
  81.6000        512
  82.0000        487
  82.4000        467
  82.8000        460
  83.2000        527
  83.6000        519
  84.0000        545
  84.4000        516
  84.8000        503
  85.2000        514
  85.6000        484
  86.0000        497
  86.4000        511
  86.8000        501
  87.2000        521
  87.6000        510
  88.0000        525
  88.4000        510
  88.8000        523
  89.2000        556
  89.6000        563
  90.0000        486
  90.4000        522
  90.8000        464
  91.2000        525
  91.6000        494
  92.0000        474
  92.4000        525
  92.8000        525
  93.2000        528
  93.6000        483
  94.0000        485
  94.4000        537
  94.8000        512
  95.2000        489
  95.6000        495
  96.0000        477
  96.4000        504
  96.8000        514
  97.2000        487
  97.6000        522
  98.0000        478
  98.4000        529
  98.8000        633
  99.2000        937
  99.6000        982
 100.0000        600
 100.4000        509
 100.8000        494
 101.2000        537
 101.6000        543
 102.0000        489
 102.4000        489
 102.8000        513
 103.2000        504
 103.6000        487
 104.0000        429
 104.4000        488
 104.8000        502
 105.2000        515
 105.6000        479
 106.0000        487
 106.4000        522
 106.8000        516
 107.2000        483
 107.6000        496
 108.0000        538
 108.4000        541
 108.8000        504
 109.2000        538
 109.6000        502
 110.0000        490
 110.4000        555
 110.8000        539
 111.2000        604
 111.6000        510
 112.0000        501
 112.4000        503
 112.8000        518
 113.2000        477
 113.6000        520
 114.0000        488
 114.4000        480
 114.8000        480
 115.2000        520
 115.6000        486
 116.0000        520
 116.4000        480
 116.8000        500
 117.2000        546
 117.6000        464
 118.0000        507
 118.4000        528
 118.8000        606
 119.2000        554
 119.6000        548
 120.0000        479
 120.4000        498
 120.8000        509
 121.2000        510
 121.6000        509
[...]
  72.4000        252
  72.8000        281
  73.2000        269
  73.6000        286
  74.0000        277
  74.4000        275
  74.8000        287
  75.2000        326
  75.6000        319
  76.0000        291
  76.4000        316
  76.8000        303
  77.2000        324
  77.6000        324
  78.0000        344
  78.4000        252
  78.8000        236
  79.2000        283
  79.6000        281
  80.0000        291
  80.4000        276
  80.8000        261
  81.2000        297
  81.6000        277
  82.0000        271
  82.4000        312
  82.8000        307
  83.2000        300
  83.6000        308
  84.0000        290
  84.4000        284
  84.8000        275
  85.2000        299
  85.6000        286
  86.0000        296
  86.4000        298
  86.8000        287
  87.2000        317
  87.6000        271
  88.0000        309
  88.4000        330
  88.8000        328
  89.2000        306
  89.6000        348
  90.0000        284
  90.4000        327
  90.8000        319
  91.2000        301
  91.6000        301
  92.0000        323
  92.4000        390
  92.8000        331
  93.2000        330
  93.6000        341
  94.0000        327
  94.4000        287
  94.8000        308
  95.2000        323
  95.6000        330
  96.0000        298
  96.4000        304
  96.8000        277
  97.2000        340
  97.6000        310
  98.0000        320
  98.4000        381
  98.8000        477
  99.2000        528
  99.6000        538
 100.0000        463
 100.4000        420
 100.8000        360
 101.2000        331
 101.6000        316
 102.0000        333
 102.4000        325
 102.8000        293
 103.2000        315
 103.6000        324
 104.0000        307
 104.4000        320
 104.8000        317
 105.2000        328
 105.6000        335
 106.0000        355
 106.4000        307
 106.8000        304
 107.2000        297
 107.6000        323
 108.0000        335
 108.4000        320
 108.8000        317
 109.2000        364
 109.6000        343
 110.0000        362
 110.4000        380
 110.8000        422
 111.2000        332
 111.6000        344
 112.0000        331
 112.4000        348
 112.8000        351
 113.2000        309
 113.6000        313
 114.0000        295
 114.4000        335
 114.8000        333
 115.2000        348
 115.6000        354
 116.0000        316
 116.4000        338
 116.8000        321
 117.2000        343
 117.6000        336
 118.0000        331
 118.4000        323
 118.8000        335
 119.2000        360
 119.6000        310
 120.0000        325
 120.4000        351
 120.8000        344
 121.2000        353
 121.6000        344
 122.0000        345
 122.4000        374
 122.8000        401
 123.2000        474
 123.6000        494
 124.0000        416
 124.4000        372
 124.8000        353
 125.2000        375
 125.6000        367
 126.0000        305
 126.4000        362
 126.8000        383
 127.2000        337
 127.6000        362
 128.0000        368
 128.4000        358
 128.8000        335
 129.2000        353
 129.6000        346
 130.0000        370

; Data for range 53
_DRIVE = COUPLED
_STEPTIME = 0.2
_STEPSIZE = 0.1
_STEPMODE = C
_START = 40
_THETA = 20
_2THETA = 40
_KHI = 80
_PHI = 0
_X = 25
_Y = -25
_Z = 0
_DETECTOR = 1
; Detector type : Scintillation counter
_HV = 687
_GAIN = 80
_LLD = 0.69
_ULD = 1.866
_DETECTORSLIT = unkn
_AUX1 = 0
_AUX2 = 0
_AUX3 = 0
_TIMESTARTED = 1.028e+004
_TEMP_RATE = -1
_TEMP_DELAY = -1
_KV = 35
_MA = 40
_RANGE_WL = 1.78897
_3DPLANE = 0
_V4_ADDITIONALDETECTOR = 0
_V4_D8_DIBNUM = 1
_V4_DETECTORNAME = "Detector 1"
_V4_TTLDETECTOR = None
_V4_DETECTORTYPE = 1
_V4_DETECTORFLAGS = 524545
_V4_DETECTORHV = 687
_V4_DETECTORGAIN = 80
_V4_DETECTORLLD1 = 0.69
_V4_DETECTORWW1 = 1.176
_V4_DETECTORLLD2 = 0
_V4_DETECTORWW2 = 0
_V4_DETECTORPS = 0
_V4_DETECTORDT = 0
_V4_DETECTORPILEUPTIME = 0
_V4_COUNTERS_MASK = 1
_V4_DRIVES_MASK = 0
_V4_ENCODERS_MASK = 0
_2THETACOUNTS = 1
; 2THETA  Cnt1_D1
  40.0000        130
  40.4000        145
  40.8000        179
  41.2000        150
  41.6000        150
  42.0000        155
  42.4000        162
  42.8000        172
  43.2000        192
  43.6000        231
  44.0000        211
  44.4000        174
  44.8000        152
  45.2000        183
  45.6000        189
  46.0000        161
  46.4000        198
  46.8000        178
  47.2000        182
  47.6000        186
  48.0000        183
  48.4000        184
  48.8000        198
  49.2000        173
  49.6000        191
  50.0000        228
  50.4000        291
  50.8000        336
  51.2000        363
  51.6000        498
  52.0000        707
  52.4000        740
  52.8000        551
  53.2000        431
  53.6000        193
  54.0000        201
  54.4000        190
  54.8000        202
  55.2000        208
  55.6000        234
  56.0000        227
  56.4000        214
  56.8000        198
  57.2000        218
  57.6000        212
  58.0000        242
  58.4000        210
  58.8000        211
  59.2000        235
  59.6000        236
  60.0000        244
  60.4000        234
  60.8000        202
  61.2000        204
  61.6000        198
  62.0000        221
  62.4000        224
  62.8000        216
  63.2000        229
  63.6000        235
  64.0000        220
  64.4000        233
  64.8000        207
  65.2000        237
  65.6000        207
  66.0000        209
  66.4000        246
  66.8000        213
  67.2000        206
  67.6000        224
  68.0000        203
  68.4000        233
  68.8000        217
  69.2000        258
  69.6000        250
  70.0000        245
  70.4000        234
  70.8000        250
  71.2000        259
  71.6000        236
  72.0000        223
  72.4000        239
  72.8000        228
  73.2000        228
  73.6000        235
  74.0000        232
  74.4000        255
  74.8000        272
  75.2000        273
  75.6000        272
  76.0000        236
  76.4000        320
  76.8000        324
  77.2000        292
  77.6000        286
  78.0000        264
  78.4000        273
  78.8000        259
  79.2000        244
  79.6000        264
  80.0000        264
  80.4000        247
  80.8000        248
  81.2000        294
  81.6000        303
  82.0000        241
  82.4000        243
  82.8000        245
  83.2000        277
  83.6000        282
  84.0000        270
  84.4000        299
  84.8000        288
  85.2000        306
  85.6000        283
  86.0000        293
  86.4000        252
  86.8000        312
  87.2000        284
  87.6000        288
  88.0000        280
  88.4000        284
  88.8000        330
  89.2000        337
  89.6000        340
  90.0000        296
  90.4000        289
  90.8000        314
  91.2000        325
  91.6000        303
  92.0000        297
  92.4000        313
  92.8000        296
  93.2000        283
  93.6000        275
  94.0000        305
  94.4000        276
  94.8000        304
  95.2000        294
  95.6000        304
  96.0000        321
  96.4000        335
  96.8000        281
  97.2000        327
  97.6000        319
  98.0000        340
  98.4000        371
  98.8000        493
  99.2000        488
  99.6000        467
 100.0000        437
 100.4000        356
 100.8000        299
 101.2000        309
 101.6000        335
 102.0000        340
 102.4000        303
 102.8000        317
 103.2000        323
 103.6000        312
 104.0000        336
 104.4000        337
 104.8000        330
 105.2000        341
 105.6000        313
 106.0000        313
 106.4000        334
 106.8000        350
 107.2000        352
 107.6000        377
 108.0000        368
 108.4000        359
 108.8000        342
 109.2000        372
 109.6000        353
 110.0000        365
 110.4000        352
 110.8000        376
 111.2000        383
 111.6000        334
 112.0000        333
 112.4000        341
 112.8000        363
 113.2000        361
 113.6000        326
 114.0000        333
 114.4000        359
 114.8000        372
 115.2000        321
 115.6000        358
 116.0000        363
 116.4000        343
 116.8000        340
 117.2000        384
 117.6000        382
 118.0000        345
 118.4000        371
 118.8000        378
 119.2000        371
 119.6000        380
 120.0000        348
 120.4000        369
 120.8000        341
 121.2000        332
 121.6000        377
 122.0000        348
 122.4000        435
 122.8000        472
 123.2000        519
 123.6000        496
 124.0000        434
 124.4000        393
 124.8000        397
 125.2000        315
 125.6000        368
 126.0000        367
 126.4000        388
 126.8000        331
 127.2000        356
 127.6000        362
 128.0000        378
 128.4000        342
 128.8000        319
 129.2000        386
 129.6000        383
 130.0000        361