File: exp_dat/old/exp_2013_11_11/08pct_40L.uxd
; (content of file C:\DIFFDAT1\GIFT\MDL\Seawoong Lee\20131104_MV8\equal_area_maxkhi080_n8_2th40_130_x25y-25_40L.raw)
_FILEVERSION = 3
_SAMPLE =
_+SAMPLE =
_SITE = Korea
_USER = Admin
_GONIOMETER_CODE = 20
; Goniometer : D8 theta/2theta, stage : Unknown
_SAMPLE_CHANGER_CODE = 0
_ATTACHMENTS_CODE = 0
_GONIOMETER_RADIUS = 300
_FIXED_DIVSLIT = 1
_FIXED_SAMPLESLIT = 0
_SOLLER_SLITS = 2
_FIXED_DETSLIT = 0.1
_MONOCHROMATOR = 0
; Incident beam monochromator : None
_SOLLER_SLITS_2 = 2
_THIN_FILM = N
_BETA_FILTER = Y
_FIXED_ANTISLIT = 0.6
_ANALYZER_CODE = 0
; Received beam analyzer : None
_DATEMEASURED = "06-Nov-2013 13:17:20"
_WL_UNIT = A
_WL1 = 1.78897
_WL2 = 1.79285
_WL3 = 1.62079
_WLRATIO = 0.5
_ANODE = Co
_V4_INF_CREATOR = XRDWizard
_V4_INF_CREATOR_VERSION = V2.9.0.22
_V4_INF_WIZARD_VERSION = V2.9.0.22
_V4_INF_WIZARD_ADDINS = V2.9.0.22
_V4_INF_WIZARD_DOCTYPE = XRD
_V4_INF_OSUSER = Postech
_V4_INF_USER = Admin
_V4_INF_SITE = Korea

; Data for range 1
_DRIVE = COUPLED
_STEPTIME = 0.2
_STEPSIZE = 0.1
_STEPMODE = C
_START = 40
_THETA = 20
_2THETA = 40
_KHI = 0
_PHI = 0
_X = 25
_Y = -25
_Z = 0
_DETECTOR = 1
; Detector type : Scintillation counter
_HV = 687
_GAIN = 80
_LLD = 0.69
_ULD = 1.866
_DETECTORSLIT = unkn
_AUX1 = 0
_AUX2 = 0
_AUX3 = 0
_TIMESTARTED = 11
_TEMP_RATE = -1
_TEMP_DELAY = -1
_KV = 35
_MA = 40
_RANGE_WL = 1.78897
_3DPLANE = 0
_V4_ADDITIONALDETECTOR = 0
_V4_D8_DIBNUM = 1
_V4_DETECTORNAME = "Detector 1"
_V4_TTLDETECTOR = None
_V4_DETECTORTYPE = 1
_V4_DETECTORFLAGS = 524545
_V4_DETECTORHV = 687
_V4_DETECTORGAIN = 80
_V4_DETECTORLLD1 = 0.69
_V4_DETECTORWW1 = 1.176
_V4_DETECTORLLD2 = 0
_V4_DETECTORWW2 = 0
_V4_DETECTORPS = 0
_V4_DETECTORDT = 0
_V4_DETECTORPILEUPTIME = 0
_V4_COUNTERS_MASK = 1
_V4_DRIVES_MASK = 0
_V4_ENCODERS_MASK = 0
_2THETACOUNTS = 1
; 2THETA  Cnt1_D1
  40.0000        532
  40.4000        505
  40.8000        476
  41.2000        530
  41.6000        498
  42.0000        527
  42.4000        529
  42.8000        540
  43.2000        499
  43.6000        529
  44.0000        519
  44.4000        591
  44.8000        489
  45.2000        530
  45.6000        505
  46.0000        537
  46.4000        525
  46.8000        516
  47.2000        499
  47.6000        502
  48.0000        510
  48.4000        518
  48.8000        474
  49.2000        533
  49.6000        500
  50.0000        484
  50.4000        542
  50.8000        610
  51.2000        622
  51.6000        804
  52.0000       1609
  52.4000       1344
  52.8000        555
  53.2000        529
  53.6000        540
  54.0000        537
  54.4000        535
  54.8000        541
  55.2000        513
  55.6000        523
  56.0000        503
  56.4000        565
  56.8000        512
  57.2000        518
  57.6000        522
  58.0000        528
  58.4000        503
  58.8000        535
  59.2000        527
  59.6000        605
  60.0000        557
  60.4000        534
  60.8000        545
  61.2000        510
  61.6000        513
  62.0000        549
  62.4000        514
  62.8000        496
  63.2000        477
  63.6000        509
  64.0000        491
  64.4000        491
  64.8000        518
  65.2000        484
  65.6000        482
  66.0000        513
  66.4000        523
  66.8000        512
  67.2000        557
  67.6000        474
  68.0000        496
  68.4000        513
  68.8000        494
  69.2000        488
  69.6000        545
  70.0000        504
  70.4000        520
  70.8000        462
  71.2000        494
  71.6000        510
  72.0000        517
  72.4000        509
  72.8000        544
  73.2000        503
  73.6000        477
  74.0000        477
  74.4000        507
  74.8000        483
  75.2000        475
  75.6000        467
  76.0000        521
  76.4000        720
  76.8000        923
  77.2000        841
  77.6000        579
  78.0000        497
  78.4000        521
  78.8000        484
  79.2000        506
  79.6000        535
  80.0000        510
  80.4000        516
  80.8000        558
  81.2000        503
  81.6000        520
  82.0000        509
  82.4000        535
  82.8000        534
  83.2000        544
  83.6000        526
  84.0000        519
  84.4000        504
  84.8000        509
  85.2000        523
  85.6000        509
  86.0000        538
  86.4000        519
  86.8000        550
  87.2000        532
  87.6000        492
  88.0000        513
  88.4000        496
  88.8000        592
  89.2000        731
  89.6000        681
  90.0000        566
  90.4000        518
  90.8000        520
  91.2000        523
  91.6000        488
  92.0000        520
  92.4000        516
  92.8000        484
  93.2000        465
  93.6000        514
  94.0000        507
  94.4000        515
  94.8000        469
  95.2000        493
  95.6000        512
  96.0000        483
  96.4000        504
  96.8000        552
  97.2000        488
  97.6000        517
  98.0000        461
  98.4000        557
  98.8000        831
  99.2000       1211
  99.6000       1186
 100.0000        689
 100.4000        514
 100.8000        495
 101.2000        513
 101.6000        518
 102.0000        504
 102.4000        517
 102.8000        508
 103.2000        484
 103.6000        488
 104.0000        536
 104.4000        490
 104.8000        480
 105.2000        506
 105.6000        525
 106.0000        539
 106.4000        475
 106.8000        512
 107.2000        507
 107.6000        494
 108.0000        513
 108.4000        540
 108.8000        520
 109.2000        516
 109.6000        522
 110.0000        510
 110.4000        553
 110.8000        585
 111.2000        635
 111.6000        552
 112.0000        492
 112.4000        508
 112.8000        487
 113.2000        522
 113.6000        484
 114.0000        576
 114.4000        538
 114.8000        522
 115.2000        447
 115.6000        524
 116.0000        521
 116.4000        491
 116.8000        494
 117.2000        491
 117.6000        532
 118.0000        505
 118.4000        496
 118.8000        467
 119.2000        557
 119.6000        497
 120.0000        544
 120.4000        507
 120.8000        486
 121.2000        474
 121.6000        526
 122.0000        501
 122.4000        519
 122.8000        531
 123.2000        524
 123.6000        596
 124.0000        559
 124.4000        523
 124.8000        510
 125.2000        493
 125.6000        525
 126.0000        509
 126.4000        534
 126.8000        506
 127.2000        530
 127.6000        531
 128.0000        478
 128.4000        543
 128.8000        483
 129.2000        483
 129.6000        518
 130.0000        463

; Data for range 2
_DRIVE = COUPLED
_STEPTIME = 0.2
_STEPSIZE = 0.1
_STEPMODE = C
_START = 40
_THETA = 20
_2THETA = 40
_KHI = 10.5
_PHI = 60
_X = 25
_Y = -25
_Z = 0
_DETECTOR = 1
; Detector type : Scintillation counter
_HV = 687
_GAIN = 80
_LLD = 0.69
_ULD = 1.866
_DETECTORSLIT = unkn
_AUX1 = 0
_AUX2 = 0
_AUX3 = 0
_TIMESTARTED = 209
_TEMP_RATE = -1
_TEMP_DELAY = -1
_KV = 35
_MA = 40
_RANGE_WL = 1.78897
_3DPLANE = 0
_V4_ADDITIONALDETECTOR = 0
_V4_D8_DIBNUM = 1
_V4_DETECTORNAME = "Detector 1"
_V4_TTLDETECTOR = None
_V4_DETECTORTYPE = 1
_V4_DETECTORFLAGS = 524545
_V4_DETECTORHV = 687
_V4_DETECTORGAIN = 80
_V4_DETECTORLLD1 = 0.69
_V4_DETECTORWW1 = 1.176
_V4_DETECTORLLD2 = 0
_V4_DETECTORWW2 = 0
_V4_DETECTORPS = 0
_V4_DETECTORDT = 0
_V4_DETECTORPILEUPTIME = 0
_V4_COUNTERS_MASK = 1
_V4_DRIVES_MASK = 0
_V4_ENCODERS_MASK = 0
_2THETACOUNTS = 1
; 2THETA  Cnt1_D1
  40.0000        558
  40.4000        519
  40.8000        535
  41.2000        542
  41.6000        535
  42.0000        528
  42.4000        550
  42.8000        552
  43.2000        566
  43.6000        500
  44.0000        537
  44.4000        522
  44.8000        495
  45.2000        521
  45.6000        547
  46.0000        523
  46.4000        507
  46.8000        508
  47.2000        518
  47.6000        530
  48.0000        532
  48.4000        540
  48.8000        549
  49.2000        520
  49.6000        550
  50.0000        525
  50.4000        602
  50.8000        719
  51.2000        693
  51.6000        832
  52.0000       1441
  52.4000       1252
  52.8000        588
  53.2000        523
  53.6000        522
  54.0000        558
  54.4000        526
  54.8000        531
  55.2000        514
  55.6000        484
  56.0000        559
  56.4000        547
  56.8000        546
  57.2000        503
  57.6000        503
  58.0000        506
  58.4000        522
  58.8000        521
  59.2000        564
  59.6000        613
  60.0000        520
  60.4000        487
  60.8000        481
  61.2000        515
  61.6000        504
  62.0000        532
  62.4000        505
  62.8000        555
  63.2000        490
  63.6000        533
  64.0000        530
  64.4000        488
  64.8000        505
  65.2000        544
  65.6000        514
  66.0000        514
  66.4000        458
  66.8000        524
  67.2000        484
  67.6000        458
  68.0000        489
  68.4000        522
  68.8000        466
  69.2000        517
  69.6000        530
  70.0000        513
  70.4000        518
  70.8000        501
  71.2000        457
  71.6000        473
  72.0000        514
  72.4000        511
  72.8000        487
  73.2000        537
  73.6000        528
  74.0000        551
  74.4000        551
  74.8000        509
  75.2000        467
  75.6000        535
  76.0000        532
  76.4000        582
  76.8000        627
  77.2000        625
  77.6000        509
  78.0000        510
  78.4000        529
  78.8000        505
  79.2000        518
  79.6000        543
  80.0000        444
  80.4000        514
  80.8000        467
  81.2000        547
  81.6000        491
  82.0000        491
  82.4000        519
  82.8000        476
  83.2000        509
  83.6000        462
  84.0000        511
  84.4000        500
  84.8000        503
  85.2000        483
  85.6000        492
  86.0000        473
  86.4000        507
  86.8000        533
  87.2000        544
  87.6000        532
  88.0000        555
  88.4000        476
  88.8000        553
  89.2000        604
  89.6000        555
  90.0000        514
  90.4000        465
  90.8000        511
  91.2000        517
  91.6000        534
  92.0000        466
  92.4000        517
  92.8000        513
  93.2000        501
  93.6000        516
  94.0000        485
  94.4000        523
  94.8000        501
  95.2000        538
  95.6000        510
  96.0000        548
  96.4000        469
  96.8000        513
  97.2000        491
  97.6000        538
  98.0000        516
  98.4000        527
  98.8000        824
  99.2000       1122
  99.6000       1079
 100.0000        634
 100.4000        523
 100.8000        523
 101.2000        484
 101.6000        522
 102.0000        504
 102.4000        530
 102.8000        485
 103.2000        529
 103.6000        523
 104.0000        495
 104.4000        555
 104.8000        564
 105.2000        497
 105.6000        519
 106.0000        478
 106.4000        544
 106.8000        530
 107.2000        524
 107.6000        521
 108.0000        478
 108.4000        468
 108.8000        483
 109.2000        551
 109.6000        485
 110.0000        474
 110.4000        536
 110.8000        512
 111.2000        571
 111.6000        580
 112.0000        535
 112.4000        519
 112.8000        497
 113.2000        541
 113.6000        486
 114.0000        565
 114.4000        556
 114.8000        474
 115.2000        508
 115.6000        507
 116.0000        519
 116.4000        538
 116.8000        516
 117.2000        542
 117.6000        512
 118.0000        511
 118.4000        514
 118.8000        532
 119.2000        507
 119.6000        516
 120.0000        507
 120.4000        505
 120.8000        533
 121.2000        492
 121.6000        507
 122.0000        508
 122.4000        554
 122.8000        581
 123.2000        589
 123.6000        610
 124.0000        580
 124.4000        512
 124.8000        524
 125.2000        483
 125.6000        487
 126.0000        552
 126.4000        519
 126.8000        502
 127.2000        504
 127.6000        518
 128.0000        486
 128.4000        516
 128.8000        521
 129.2000        504
 129.6000        550
 130.0000        508

; Data for range 3
_DRIVE = COUPLED
_STEPTIME = 0.2
_STEPSIZE = 0.1
_STEPMODE = C
_START = 40
_THETA = 20
_2THETA = 40
_KHI = 18.3
_PHI = 90
_X = 25
_Y = -25
_Z = 0
_DETECTOR = 1
; Detector type : Scintillation counter
_HV = 687
_GAIN = 80
_LLD = 0.69
_ULD = 1.866
_DETECTORSLIT = unkn
_AUX1 = 0
_AUX2 = 0
_AUX3 = 0
_TIMESTARTED = 406
_TEMP_RATE = -1
_TEMP_DELAY = -1
_KV = 35
_MA = 40
_RANGE_WL = 1.78897
_3DPLANE = 0
_V4_ADDITIONALDETECTOR = 0
_V4_D8_DIBNUM = 1
_V4_DETECTORNAME = "Detector 1"
_V4_TTLDETECTOR = None
_V4_DETECTORTYPE = 1
_V4_DETECTORFLAGS = 524545
_V4_DETECTORHV = 687
_V4_DETECTORGAIN = 80
_V4_DETECTORLLD1 = 0.69
_V4_DETECTORWW1 = 1.176
_V4_DETECTORLLD2 = 0
_V4_DETECTORWW2 = 0
_V4_DETECTORPS = 0
_V4_DETECTORDT = 0
_V4_DETECTORPILEUPTIME = 0
_V4_COUNTERS_MASK = 1
_V4_DRIVES_MASK = 0
_V4_ENCODERS_MASK = 0
_2THETACOUNTS = 1
; 2THETA  Cnt1_D1
  40.0000        540
  40.4000        480
  40.8000        571
  41.2000        562
  41.6000        556
  42.0000        500
  42.4000        503
  42.8000        551
  43.2000        523
  43.6000        507
  44.0000        511
  44.4000        517
  44.8000        535
  45.2000        507
  45.6000        532
  46.0000        518
  46.4000        503
  46.8000        537
  47.2000        522
  47.6000        478
  48.0000        501
  48.4000        566
  48.8000        536
  49.2000        531
  49.6000        572
  50.0000        566
  50.4000        795
  50.8000       1040
  51.2000        961
  51.6000       1219
  52.0000       2595
  52.4000       2287
  52.8000        733
  53.2000        533
  53.6000        510
  54.0000        562
  54.4000        591
  54.8000        552
  55.2000        503
  55.6000        503
  56.0000        555
  56.4000        530
  56.8000        516
  57.2000        519
  57.6000        505
  58.0000        535
  58.4000        505
  58.8000        593
  59.2000        670
  59.6000        655
  60.0000        600
  60.4000        548
  60.8000        514
  61.2000        535
  61.6000        548
  62.0000        520
  62.4000        490
  62.8000        490
  63.2000        556
  63.6000        477
  64.0000        512
  64.4000        506
  64.8000        514
  65.2000        522
  65.6000        516
  66.0000        517
  66.4000        542
  66.8000        520
  67.2000        523
  67.6000        510
  68.0000        536
  68.4000        513
  68.8000        493
  69.2000        471
  69.6000        505
  70.0000        511
  70.4000        519
  70.8000        528
  71.2000        531
  71.6000        431
  72.0000        542
  72.4000        456
  72.8000        506
  73.2000        538
  73.6000        478
  74.0000        493
  74.4000        478
  74.8000        562
  75.2000        526
  75.6000        513
  76.0000        488
  76.4000        575
  76.8000        628
  77.2000        578
  77.6000        551
  78.0000        483
  78.4000        520
  78.8000        508
  79.2000        530
  79.6000        500
  80.0000        496
  80.4000        489
  80.8000        490
  81.2000        488
  81.6000        446
  82.0000        510
  82.4000        518
  82.8000        496
  83.2000        530
  83.6000        498
  84.0000        483
  84.4000        502
  84.8000        514
  85.2000        531
  85.6000        492
  86.0000        521
  86.4000        540
  86.8000        516
  87.2000        477
  87.6000        500
  88.0000        497
  88.4000        494
  88.8000        518
  89.2000        565
  89.6000        551
  90.0000        515
  90.4000        505
  90.8000        520
  91.2000        502
  91.6000        558
  92.0000        456
  92.4000        513
  92.8000        528
  93.2000        518
  93.6000        510
  94.0000        522
  94.4000        520
  94.8000        520
  95.2000        528
  95.6000        503
  96.0000        503
  96.4000        541
  96.8000        506
  97.2000        487
  97.6000        521
  98.0000        534
  98.4000        515
  98.8000        636
  99.2000        999
  99.6000        934
 100.0000        591
 100.4000        527
 100.8000        527
 101.2000        528
 101.6000        515
 102.0000        520
 102.4000        488
 102.8000        535
 103.2000        521
 103.6000        504
 104.0000        487
 104.4000        497
 104.8000        515
 105.2000        496
 105.6000        521
 106.0000        542
 106.4000        494
 106.8000        498
 107.2000        501
 107.6000        524
 108.0000        491
 108.4000        554
 108.8000        458
 109.2000        504
 109.6000        525
 110.0000        555
 110.4000        572
 110.8000        574
 111.2000        602
 111.6000        543
 112.0000        520
 112.4000        476
 112.8000        516
 113.2000        503
 113.6000        527
 114.0000        557
 114.4000        488
 114.8000        543
 115.2000        508
 115.6000        531
 116.0000        435
 116.4000        503
 116.8000        550
 117.2000        540
 117.6000        522
 118.0000        458
 118.4000        532
 118.8000        597
 119.2000        520
 119.6000        466
 120.0000        491
 120.4000        517
 120.8000        518
 121.2000        512
 121.6000        503
[...]
  72.4000        274
  72.8000        277
  73.2000        299
  73.6000        274
  74.0000        312
  74.4000        289
  74.8000        267
  75.2000        335
  75.6000        333
  76.0000        344
  76.4000        347
  76.8000        384
  77.2000        327
  77.6000        331
  78.0000        263
  78.4000        272
  78.8000        271
  79.2000        299
  79.6000        283
  80.0000        281
  80.4000        326
  80.8000        285
  81.2000        306
  81.6000        287
  82.0000        291
  82.4000        278
  82.8000        274
  83.2000        330
  83.6000        326
  84.0000        281
  84.4000        301
  84.8000        276
  85.2000        334
  85.6000        289
  86.0000        290
  86.4000        322
  86.8000        296
  87.2000        326
  87.6000        287
  88.0000        304
  88.4000        317
  88.8000        343
  89.2000        341
  89.6000        337
  90.0000        362
  90.4000        310
  90.8000        306
  91.2000        314
  91.6000        356
  92.0000        332
  92.4000        388
  92.8000        308
  93.2000        311
  93.6000        320
  94.0000        315
  94.4000        306
  94.8000        316
  95.2000        316
  95.6000        294
  96.0000        341
  96.4000        330
  96.8000        335
  97.2000        320
  97.6000        323
  98.0000        349
  98.4000        395
  98.8000        472
  99.2000        541
  99.6000        554
 100.0000        440
 100.4000        398
 100.8000        348
 101.2000        359
 101.6000        339
 102.0000        329
 102.4000        333
 102.8000        320
 103.2000        341
 103.6000        356
 104.0000        365
 104.4000        362
 104.8000        335
 105.2000        297
 105.6000        323
 106.0000        347
 106.4000        332
 106.8000        357
 107.2000        340
 107.6000        337
 108.0000        326
 108.4000        341
 108.8000        341
 109.2000        332
 109.6000        355
 110.0000        355
 110.4000        358
 110.8000        381
 111.2000        400
 111.6000        374
 112.0000        379
 112.4000        363
 112.8000        360
 113.2000        366
 113.6000        326
 114.0000        355
 114.4000        298
 114.8000        368
 115.2000        349
 115.6000        327
 116.0000        340
 116.4000        358
 116.8000        351
 117.2000        373
 117.6000        382
 118.0000        363
 118.4000        406
 118.8000        352
 119.2000        361
 119.6000        342
 120.0000        381
 120.4000        392
 120.8000        356
 121.2000        375
 121.6000        344
 122.0000        350
 122.4000        365
 122.8000        411
 123.2000        430
 123.6000        501
 124.0000        423
 124.4000        384
 124.8000        396
 125.2000        399
 125.6000        346
 126.0000        368
 126.4000        368
 126.8000        398
 127.2000        370
 127.6000        357
 128.0000        358
 128.4000        357
 128.8000        388
 129.2000        404
 129.6000        388
 130.0000        354

; Data for range 53
_DRIVE = COUPLED
_STEPTIME = 0.2
_STEPSIZE = 0.1
_STEPMODE = C
_START = 40
_THETA = 20
_2THETA = 40
_KHI = 80
_PHI = 0
_X = 25
_Y = -25
_Z = 0
_DETECTOR = 1
; Detector type : Scintillation counter
_HV = 687
_GAIN = 80
_LLD = 0.69
_ULD = 1.866
_DETECTORSLIT = unkn
_AUX1 = 0
_AUX2 = 0
_AUX3 = 0
_TIMESTARTED = 1.028e+004
_TEMP_RATE = -1
_TEMP_DELAY = -1
_KV = 35
_MA = 40
_RANGE_WL = 1.78897
_3DPLANE = 0
_V4_ADDITIONALDETECTOR = 0
_V4_D8_DIBNUM = 1
_V4_DETECTORNAME = "Detector 1"
_V4_TTLDETECTOR = None
_V4_DETECTORTYPE = 1
_V4_DETECTORFLAGS = 524545
_V4_DETECTORHV = 687
_V4_DETECTORGAIN = 80
_V4_DETECTORLLD1 = 0.69
_V4_DETECTORWW1 = 1.176
_V4_DETECTORLLD2 = 0
_V4_DETECTORWW2 = 0
_V4_DETECTORPS = 0
_V4_DETECTORDT = 0
_V4_DETECTORPILEUPTIME = 0
_V4_COUNTERS_MASK = 1
_V4_DRIVES_MASK = 0
_V4_ENCODERS_MASK = 0
_2THETACOUNTS = 1
; 2THETA  Cnt1_D1
  40.0000        151
  40.4000        147
  40.8000        147
  41.2000        156
  41.6000        147
  42.0000        155
  42.4000        167
  42.8000        176
  43.2000        219
  43.6000        221
  44.0000        197
  44.4000        161
  44.8000        169
  45.2000        151
  45.6000        171
  46.0000        157
  46.4000        178
  46.8000        163
  47.2000        166
  47.6000        165
  48.0000        163
  48.4000        181
  48.8000        170
  49.2000        175
  49.6000        186
  50.0000        182
  50.4000        269
  50.8000        363
  51.2000        371
  51.6000        522
  52.0000        689
  52.4000        803
  52.8000        486
  53.2000        267
  53.6000        193
  54.0000        177
  54.4000        181
  54.8000        190
  55.2000        155
  55.6000        191
  56.0000        190
  56.4000        166
  56.8000        194
  57.2000        208
  57.6000        200
  58.0000        196
  58.4000        185
  58.8000        216
  59.2000        211
  59.6000        253
  60.0000        235
  60.4000        223
  60.8000        214
  61.2000        185
  61.6000        176
  62.0000        189
  62.4000        197
  62.8000        178
  63.2000        218
  63.6000        227
  64.0000        189
  64.4000        241
  64.8000        184
  65.2000        215
  65.6000        223
  66.0000        228
  66.4000        237
  66.8000        229
  67.2000        260
  67.6000        217
  68.0000        246
  68.4000        237
  68.8000        265
  69.2000        216
  69.6000        230
  70.0000        219
  70.4000        217
  70.8000        252
  71.2000        237
  71.6000        246
  72.0000        232
  72.4000        241
  72.8000        230
  73.2000        278
  73.6000        249
  74.0000        240
  74.4000        282
  74.8000        262
  75.2000        255
  75.6000        238
  76.0000        271
  76.4000        280
  76.8000        273
  77.2000        273
  77.6000        301
  78.0000        299
  78.4000        255
  78.8000        242
  79.2000        290
  79.6000        286
  80.0000        283
  80.4000        246
  80.8000        266
  81.2000        271
  81.6000        265
  82.0000        270
  82.4000        257
  82.8000        272
  83.2000        272
  83.6000        290
  84.0000        307
  84.4000        298
  84.8000        274
  85.2000        269
  85.6000        265
  86.0000        287
  86.4000        292
  86.8000        288
  87.2000        284
  87.6000        296
  88.0000        265
  88.4000        305
  88.8000        306
  89.2000        343
  89.6000        321
  90.0000        302
  90.4000        310
  90.8000        298
  91.2000        323
  91.6000        307
  92.0000        324
  92.4000        331
  92.8000        287
  93.2000        321
  93.6000        324
  94.0000        321
  94.4000        327
  94.8000        304
  95.2000        336
  95.6000        326
  96.0000        302
  96.4000        313
  96.8000        325
  97.2000        317
  97.6000        351
  98.0000        309
  98.4000        412
  98.8000        475
  99.2000        506
  99.6000        547
 100.0000        446
 100.4000        390
 100.8000        367
 101.2000        340
 101.6000        332
 102.0000        333
 102.4000        373
 102.8000        345
 103.2000        331
 103.6000        340
 104.0000        340
 104.4000        345
 104.8000        381
 105.2000        337
 105.6000        331
 106.0000        366
 106.4000        352
 106.8000        380
 107.2000        365
 107.6000        342
 108.0000        357
 108.4000        315
 108.8000        344
 109.2000        395
 109.6000        388
 110.0000        399
 110.4000        384
 110.8000        365
 111.2000        366
 111.6000        372
 112.0000        369
 112.4000        357
 112.8000        381
 113.2000        373
 113.6000        377
 114.0000        372
 114.4000        386
 114.8000        406
 115.2000        331
 115.6000        379
 116.0000        372
 116.4000        372
 116.8000        369
 117.2000        370
 117.6000        372
 118.0000        362
 118.4000        390
 118.8000        449
 119.2000        421
 119.6000        411
 120.0000        376
 120.4000        408
 120.8000        409
 121.2000        408
 121.6000        389
 122.0000        399
 122.4000        415
 122.8000        482
 123.2000        563
 123.6000        592
 124.0000        538
 124.4000        436
 124.8000        366
 125.2000        396
 125.6000        394
 126.0000        400
 126.4000        416
 126.8000        398
 127.2000        404
 127.6000        337
 128.0000        341
 128.4000        385
 128.8000        371
 129.2000        366
 129.6000        347
 130.0000        351