File: exp_dat/old/exp_2013_11_11/09pct_40G.uxd
; (content of file C:\DIFFDAT1\GIFT\MDL\Seawoong Lee\20131104_MV8\equal_area_maxkhi080_n8_2th40_130_x00y00_40g.raw)
_FILEVERSION = 3
_SAMPLE =
_+SAMPLE =
_SITE = Korea
_USER = Admin
_GONIOMETER_CODE = 20
; Goniometer : D8 theta/2theta, stage : Unknown
_SAMPLE_CHANGER_CODE = 0
_ATTACHMENTS_CODE = 0
_GONIOMETER_RADIUS = 300
_FIXED_DIVSLIT = 1
_FIXED_SAMPLESLIT = 0
_SOLLER_SLITS = 2
_FIXED_DETSLIT = 0.1
_MONOCHROMATOR = 0
; Incident beam monochromator : None
_SOLLER_SLITS_2 = 2
_THIN_FILM = N
_BETA_FILTER = Y
_FIXED_ANTISLIT = 0.6
_ANALYZER_CODE = 0
; Received beam analyzer : None
_DATEMEASURED = "09-Nov-2013 00:32:21"
_WL_UNIT = A
_WL1 = 1.78897
_WL2 = 1.79285
_WL3 = 1.62079
_WLRATIO = 0.5
_ANODE = Co
_V4_INF_CREATOR = XRDWizard
_V4_INF_CREATOR_VERSION = V2.9.0.22
_V4_INF_WIZARD_VERSION = V2.9.0.22
_V4_INF_WIZARD_ADDINS = V2.9.0.22
_V4_INF_WIZARD_DOCTYPE = XRD
_V4_INF_OSUSER = Postech
_V4_INF_USER = Admin
_V4_INF_SITE = Korea

; Data for range 1
_DRIVE = COUPLED
_STEPTIME = 0.2
_STEPSIZE = 0.1
_STEPMODE = C
_START = 40
_THETA = 20
_2THETA = 40
_KHI = 0
_PHI = 0
_X = 0
_Y = 0
_Z = 0
_DETECTOR = 1
; Detector type : Scintillation counter
_HV = 687
_GAIN = 80
_LLD = 0.69
_ULD = 1.866
_DETECTORSLIT = unkn
_AUX1 = 0
_AUX2 = 0
_AUX3 = 0
_TIMESTARTED = 27
_TEMP_RATE = -1
_TEMP_DELAY = -1
_KV = 35
_MA = 40
_RANGE_WL = 1.78897
_3DPLANE = 0
_V4_ADDITIONALDETECTOR = 0
_V4_D8_DIBNUM = 1
_V4_DETECTORNAME = "Detector 1"
_V4_TTLDETECTOR = None
_V4_DETECTORTYPE = 1
_V4_DETECTORFLAGS = 524545
_V4_DETECTORHV = 687
_V4_DETECTORGAIN = 80
_V4_DETECTORLLD1 = 0.69
_V4_DETECTORWW1 = 1.176
_V4_DETECTORLLD2 = 0
_V4_DETECTORWW2 = 0
_V4_DETECTORPS = 0
_V4_DETECTORDT = 0
_V4_DETECTORPILEUPTIME = 0
_V4_COUNTERS_MASK = 1
_V4_DRIVES_MASK = 0
_V4_ENCODERS_MASK = 0
_2THETACOUNTS = 1
; 2THETA  Cnt1_D1
  40.0000        529
  40.4000        526
  40.8000        549
  41.2000        532
  41.6000        530
  42.0000        543
  42.4000        501
  42.8000        559
  43.2000        520
  43.6000        563
  44.0000        520
  44.4000        466
  44.8000        526
  45.2000        516
  45.6000        526
  46.0000        530
  46.4000        531
  46.8000        528
  47.2000        506
  47.6000        495
  48.0000        528
  48.4000        495
  48.8000        495
  49.2000        510
  49.6000        521
  50.0000        549
  50.4000        563
  50.8000        510
  51.2000        574
  51.6000        745
  52.0000       1153
  52.4000       1086
  52.8000        593
  53.2000        520
  53.6000        546
  54.0000        522
  54.4000        517
  54.8000        524
  55.2000        480
  55.6000        502
  56.0000        541
  56.4000        539
  56.8000        536
  57.2000        510
  57.6000        511
  58.0000        556
  58.4000        544
  58.8000        539
  59.2000        490
  59.6000        544
  60.0000        510
  60.4000        514
  60.8000        541
  61.2000        516
  61.6000        505
  62.0000        485
  62.4000        542
  62.8000        545
  63.2000        508
  63.6000        481
  64.0000        521
  64.4000        531
  64.8000        505
  65.2000        472
  65.6000        536
  66.0000        491
  66.4000        536
  66.8000        498
  67.2000        527
  67.6000        506
  68.0000        542
  68.4000        539
  68.8000        493
  69.2000        504
  69.6000        513
  70.0000        525
  70.4000        519
  70.8000        524
  71.2000        493
  71.6000        503
  72.0000        477
  72.4000        459
  72.8000        508
  73.2000        465
  73.6000        484
  74.0000        533
  74.4000        469
  74.8000        533
  75.2000        513
  75.6000        550
  76.0000        627
  76.4000       1026
  76.8000       1308
  77.2000        992
  77.6000        658
  78.0000        619
  78.4000        541
  78.8000        518
  79.2000        496
  79.6000        491
  80.0000        516
  80.4000        521
  80.8000        532
  81.2000        539
  81.6000        525
  82.0000        474
  82.4000        481
  82.8000        535
  83.2000        511
  83.6000        506
  84.0000        512
  84.4000        512
  84.8000        477
  85.2000        479
  85.6000        516
  86.0000        515
  86.4000        500
  86.8000        523
  87.2000        511
  87.6000        531
  88.0000        526
  88.4000        504
  88.8000        505
  89.2000        509
  89.6000        513
  90.0000        559
  90.4000        514
  90.8000        484
  91.2000        471
  91.6000        561
  92.0000        503
  92.4000        490
  92.8000        543
  93.2000        479
  93.6000        541
  94.0000        521
  94.4000        465
  94.8000        505
  95.2000        487
  95.6000        533
  96.0000        500
  96.4000        524
  96.8000        538
  97.2000        535
  97.6000        506
  98.0000        588
  98.4000        724
  98.8000       1108
  99.2000       1598
  99.6000       1385
 100.0000        832
 100.4000        638
 100.8000        539
 101.2000        522
 101.6000        521
 102.0000        508
 102.4000        539
 102.8000        521
 103.2000        538
 103.6000        514
 104.0000        538
 104.4000        476
 104.8000        528
 105.2000        549
 105.6000        506
 106.0000        551
 106.4000        519
 106.8000        529
 107.2000        502
 107.6000        551
 108.0000        456
 108.4000        509
 108.8000        511
 109.2000        520
 109.6000        557
 110.0000        502
 110.4000        558
 110.8000        522
 111.2000        515
 111.6000        513
 112.0000        506
 112.4000        478
 112.8000        500
 113.2000        554
 113.6000        486
 114.0000        528
 114.4000        501
 114.8000        494
 115.2000        482
 115.6000        537
 116.0000        484
 116.4000        523
 116.8000        497
 117.2000        541
 117.6000        553
 118.0000        515
 118.4000        536
 118.8000        535
 119.2000        529
 119.6000        503
 120.0000        464
 120.4000        528
 120.8000        540
 121.2000        529
 121.6000        504
 122.0000        523
 122.4000        500
 122.8000        507
 123.2000        527
 123.6000        558
 124.0000        530
 124.4000        532
 124.8000        498
 125.2000        542
 125.6000        511
 126.0000        474
 126.4000        526
 126.8000        465
 127.2000        519
 127.6000        526
 128.0000        515
 128.4000        525
 128.8000        528
 129.2000        519
 129.6000        546
 130.0000        515

; Data for range 2
_DRIVE = COUPLED
_STEPTIME = 0.2
_STEPSIZE = 0.1
_STEPMODE = C
_START = 40
_THETA = 20
_2THETA = 40
_KHI = 10.5
_PHI = 60
_X = 0
_Y = 0
_Z = 0
_DETECTOR = 1
; Detector type : Scintillation counter
_HV = 687
_GAIN = 80
_LLD = 0.69
_ULD = 1.866
_DETECTORSLIT = unkn
_AUX1 = 0
_AUX2 = 0
_AUX3 = 0
_TIMESTARTED = 225
_TEMP_RATE = -1
_TEMP_DELAY = -1
_KV = 35
_MA = 40
_RANGE_WL = 1.78897
_3DPLANE = 0
_V4_ADDITIONALDETECTOR = 0
_V4_D8_DIBNUM = 1
_V4_DETECTORNAME = "Detector 1"
_V4_TTLDETECTOR = None
_V4_DETECTORTYPE = 1
_V4_DETECTORFLAGS = 524545
_V4_DETECTORHV = 687
_V4_DETECTORGAIN = 80
_V4_DETECTORLLD1 = 0.69
_V4_DETECTORWW1 = 1.176
_V4_DETECTORLLD2 = 0
_V4_DETECTORWW2 = 0
_V4_DETECTORPS = 0
_V4_DETECTORDT = 0
_V4_DETECTORPILEUPTIME = 0
_V4_COUNTERS_MASK = 1
_V4_DRIVES_MASK = 0
_V4_ENCODERS_MASK = 0
_2THETACOUNTS = 1
; 2THETA  Cnt1_D1
  40.0000        547
  40.4000        527
  40.8000        533
  41.2000        506
  41.6000        493
  42.0000        546
  42.4000        527
  42.8000        542
  43.2000        552
  43.6000        516
  44.0000        507
  44.4000        526
  44.8000        584
  45.2000        530
  45.6000        545
  46.0000        519
  46.4000        513
  46.8000        588
  47.2000        521
  47.6000        522
  48.0000        532
  48.4000        522
  48.8000        499
  49.2000        506
  49.6000        523
  50.0000        506
  50.4000        555
  50.8000        549
  51.2000        589
  51.6000        827
  52.0000       1385
  52.4000       1270
  52.8000        652
  53.2000        526
  53.6000        525
  54.0000        560
  54.4000        495
  54.8000        542
  55.2000        512
  55.6000        522
  56.0000        522
  56.4000        572
  56.8000        517
  57.2000        528
  57.6000        508
  58.0000        507
  58.4000        540
  58.8000        531
  59.2000        510
  59.6000        529
  60.0000        514
  60.4000        520
  60.8000        477
  61.2000        556
  61.6000        522
  62.0000        477
  62.4000        485
  62.8000        516
  63.2000        511
  63.6000        514
  64.0000        506
  64.4000        536
  64.8000        512
  65.2000        555
  65.6000        517
  66.0000        510
  66.4000        508
  66.8000        502
  67.2000        478
  67.6000        477
  68.0000        512
  68.4000        512
  68.8000        509
  69.2000        538
  69.6000        550
  70.0000        501
  70.4000        548
  70.8000        495
  71.2000        532
  71.6000        496
  72.0000        494
  72.4000        501
  72.8000        504
  73.2000        526
  73.6000        513
  74.0000        501
  74.4000        476
  74.8000        526
  75.2000        521
  75.6000        508
  76.0000        538
  76.4000        658
  76.8000        684
  77.2000        624
  77.6000        545
  78.0000        501
  78.4000        520
  78.8000        515
  79.2000        537
  79.6000        490
  80.0000        498
  80.4000        519
  80.8000        493
  81.2000        495
  81.6000        514
  82.0000        481
  82.4000        485
  82.8000        522
  83.2000        469
  83.6000        481
  84.0000        505
  84.4000        507
  84.8000        511
  85.2000        535
  85.6000        484
  86.0000        497
  86.4000        510
  86.8000        464
  87.2000        512
  87.6000        527
  88.0000        506
  88.4000        512
  88.8000        535
  89.2000        514
  89.6000        490
  90.0000        504
  90.4000        527
  90.8000        497
  91.2000        489
  91.6000        529
  92.0000        504
  92.4000        504
  92.8000        512
  93.2000        493
  93.6000        469
  94.0000        503
  94.4000        518
  94.8000        590
  95.2000        511
  95.6000        500
  96.0000        522
  96.4000        513
  96.8000        501
  97.2000        493
  97.6000        532
  98.0000        584
  98.4000        593
  98.8000        846
  99.2000        904
  99.6000        855
 100.0000        687
 100.4000        559
 100.8000        540
 101.2000        515
 101.6000        501
 102.0000        482
 102.4000        493
 102.8000        499
 103.2000        492
 103.6000        497
 104.0000        481
 104.4000        530
 104.8000        521
 105.2000        513
 105.6000        485
 106.0000        482
 106.4000        533
 106.8000        510
 107.2000        523
 107.6000        475
 108.0000        490
 108.4000        503
 108.8000        506
 109.2000        547
 109.6000        519
 110.0000        535
 110.4000        496
 110.8000        514
 111.2000        495
 111.6000        501
 112.0000        511
 112.4000        508
 112.8000        487
 113.2000        497
 113.6000        481
 114.0000        526
 114.4000        512
 114.8000        474
 115.2000        552
 115.6000        486
 116.0000        517
 116.4000        496
 116.8000        482
 117.2000        551
 117.6000        484
 118.0000        518
 118.4000        509
 118.8000        495
 119.2000        494
 119.6000        456
 120.0000        507
 120.4000        511
 120.8000        477
 121.2000        500
 121.6000        464
 122.0000        546
 122.4000        528
 122.8000        584
 123.2000        551
 123.6000        570
 124.0000        537
 124.4000        497
 124.8000        479
 125.2000        518
 125.6000        473
 126.0000        491
 126.4000        535
 126.8000        544
 127.2000        492
 127.6000        475
 128.0000        519
 128.4000        504
 128.8000        485
 129.2000        518
 129.6000        507
 130.0000        464

; Data for range 3
_DRIVE = COUPLED
_STEPTIME = 0.2
_STEPSIZE = 0.1
_STEPMODE = C
_START = 40
_THETA = 20
_2THETA = 40
_KHI = 18.3
_PHI = 90
_X = 0
_Y = 0
_Z = 0
_DETECTOR = 1
; Detector type : Scintillation counter
_HV = 687
_GAIN = 80
_LLD = 0.69
_ULD = 1.866
_DETECTORSLIT = unkn
_AUX1 = 0
_AUX2 = 0
_AUX3 = 0
_TIMESTARTED = 422
_TEMP_RATE = -1
_TEMP_DELAY = -1
_KV = 35
_MA = 40
_RANGE_WL = 1.78897
_3DPLANE = 0
_V4_ADDITIONALDETECTOR = 0
_V4_D8_DIBNUM = 1
_V4_DETECTORNAME = "Detector 1"
_V4_TTLDETECTOR = None
_V4_DETECTORTYPE = 1
_V4_DETECTORFLAGS = 524545
_V4_DETECTORHV = 687
_V4_DETECTORGAIN = 80
_V4_DETECTORLLD1 = 0.69
_V4_DETECTORWW1 = 1.176
_V4_DETECTORLLD2 = 0
_V4_DETECTORWW2 = 0
_V4_DETECTORPS = 0
_V4_DETECTORDT = 0
_V4_DETECTORPILEUPTIME = 0
_V4_COUNTERS_MASK = 1
_V4_DRIVES_MASK = 0
_V4_ENCODERS_MASK = 0
_2THETACOUNTS = 1
; 2THETA  Cnt1_D1
  40.0000        513
  40.4000        495
  40.8000        503
  41.2000        559
  41.6000        578
  42.0000        508
  42.4000        527
  42.8000        542
  43.2000        499
  43.6000        513
  44.0000        501
  44.4000        505
  44.8000        510
  45.2000        489
  45.6000        552
  46.0000        522
  46.4000        573
  46.8000        520
  47.2000        533
  47.6000        499
  48.0000        510
  48.4000        525
  48.8000        514
  49.2000        535
  49.6000        476
  50.0000        538
  50.4000        552
  50.8000        579
  51.2000        709
  51.6000       1305
  52.0000       2448
  52.4000       2078
  52.8000        796
  53.2000        555
  53.6000        543
  54.0000        541
  54.4000        517
  54.8000        522
  55.2000        514
  55.6000        534
  56.0000        500
  56.4000        505
  56.8000        527
  57.2000        516
  57.6000        508
  58.0000        537
  58.4000        523
  58.8000        494
  59.2000        482
  59.6000        539
  60.0000        524
  60.4000        508
  60.8000        501
  61.2000        514
  61.6000        520
  62.0000        470
  62.4000        470
  62.8000        484
  63.2000        507
  63.6000        497
  64.0000        494
  64.4000        542
  64.8000        499
  65.2000        492
  65.6000        493
  66.0000        532
  66.4000        487
  66.8000        534
  67.2000        478
  67.6000        531
  68.0000        503
  68.4000        537
  68.8000        511
  69.2000        529
  69.6000        503
  70.0000        534
  70.4000        513
  70.8000        491
  71.2000        485
  71.6000        503
  72.0000        489
  72.4000        469
  72.8000        532
  73.2000        501
  73.6000        494
  74.0000        544
  74.4000        534
  74.8000        513
  75.2000        528
  75.6000        484
  76.0000        480
  76.4000        535
  76.8000        579
  77.2000        554
  77.6000        530
  78.0000        543
  78.4000        471
  78.8000        519
  79.2000        495
  79.6000        480
  80.0000        497
  80.4000        490
  80.8000        519
  81.2000        523
  81.6000        498
  82.0000        465
  82.4000        462
  82.8000        507
  83.2000        517
  83.6000        505
  84.0000        462
  84.4000        545
  84.8000        493
  85.2000        482
  85.6000        526
  86.0000        501
  86.4000        496
  86.8000        503
  87.2000        507
  87.6000        511
  88.0000        470
  88.4000        496
  88.8000        508
  89.2000        520
  89.6000        519
  90.0000        507
  90.4000        517
  90.8000        478
  91.2000        469
  91.6000        479
  92.0000        498
  92.4000        501
  92.8000        519
  93.2000        476
  93.6000        498
  94.0000        450
  94.4000        509
  94.8000        481
  95.2000        510
  95.6000        505
  96.0000        439
  96.4000        502
  96.8000        495
  97.2000        500
  97.6000        505
  98.0000        543
  98.4000        588
  98.8000        673
  99.2000        855
  99.6000        797
 100.0000        599
 100.4000        572
 100.8000        516
 101.2000        483
 101.6000        518
 102.0000        479
 102.4000        510
 102.8000        474
 103.2000        524
 103.6000        488
 104.0000        516
 104.4000        497
 104.8000        481
 105.2000        489
 105.6000        490
 106.0000        538
 106.4000        507
 106.8000        508
 107.2000        477
 107.6000        533
 108.0000        535
 108.4000        490
 108.8000        508
 109.2000        537
 109.6000        557
 110.0000        558
 110.4000        471
 110.8000        524
 111.2000        503
 111.6000        542
 112.0000        512
 112.4000        547
 112.8000        500
 113.2000        492
 113.6000        513
 114.0000        480
 114.4000        472
 114.8000        487
 115.2000        523
 115.6000        499
 116.0000        521
 116.4000        495
 116.8000        539
 117.2000        515
 117.6000        482
 118.0000        461
 118.4000        453
 118.8000        508
 119.2000        532
 119.6000        492
 120.0000        514
 120.4000        536
 120.8000        506
 121.2000        523
 121.6000        492
[...]
  72.4000        318
  72.8000        367
  73.2000        360
  73.6000        333
  74.0000        366
  74.4000        363
  74.8000        352
  75.2000        377
  75.6000        385
  76.0000        399
  76.4000        452
  76.8000        479
  77.2000        442
  77.6000        415
  78.0000        403
  78.4000        373
  78.8000        333
  79.2000        377
  79.6000        372
  80.0000        372
  80.4000        390
  80.8000        352
  81.2000        369
  81.6000        384
  82.0000        414
  82.4000        378
  82.8000        396
  83.2000        383
  83.6000        381
  84.0000        361
  84.4000        360
  84.8000        383
  85.2000        386
  85.6000        386
  86.0000        366
  86.4000        402
  86.8000        402
  87.2000        362
  87.6000        388
  88.0000        350
  88.4000        415
  88.8000        402
  89.2000        423
  89.6000        373
  90.0000        363
  90.4000        404
  90.8000        387
  91.2000        373
  91.6000        389
  92.0000        437
  92.4000        416
  92.8000        440
  93.2000        414
  93.6000        375
  94.0000        377
  94.4000        405
  94.8000        436
  95.2000        418
  95.6000        389
  96.0000        371
  96.4000        386
  96.8000        382
  97.2000        426
  97.6000        430
  98.0000        467
  98.4000        570
  98.8000        629
  99.2000        677
  99.6000        624
 100.0000        563
 100.4000        417
 100.8000        458
 101.2000        422
 101.6000        428
 102.0000        422
 102.4000        377
 102.8000        425
 103.2000        411
 103.6000        420
 104.0000        407
 104.4000        426
 104.8000        399
 105.2000        435
 105.6000        384
 106.0000        430
 106.4000        417
 106.8000        384
 107.2000        426
 107.6000        425
 108.0000        392
 108.4000        428
 108.8000        438
 109.2000        430
 109.6000        434
 110.0000        447
 110.4000        422
 110.8000        435
 111.2000        437
 111.6000        422
 112.0000        410
 112.4000        418
 112.8000        425
 113.2000        454
 113.6000        424
 114.0000        403
 114.4000        423
 114.8000        411
 115.2000        405
 115.6000        421
 116.0000        416
 116.4000        419
 116.8000        449
 117.2000        413
 117.6000        449
 118.0000        443
 118.4000        437
 118.8000        405
 119.2000        432
 119.6000        407
 120.0000        431
 120.4000        452
 120.8000        431
 121.2000        447
 121.6000        492
 122.0000        481
 122.4000        509
 122.8000        537
 123.2000        582
 123.6000        572
 124.0000        500
 124.4000        466
 124.8000        454
 125.2000        487
 125.6000        446
 126.0000        465
 126.4000        456
 126.8000        470
 127.2000        457
 127.6000        446
 128.0000        439
 128.4000        455
 128.8000        461
 129.2000        437
 129.6000        436
 130.0000        483

; Data for range 53
_DRIVE = COUPLED
_STEPTIME = 0.2
_STEPSIZE = 0.1
_STEPMODE = C
_START = 40
_THETA = 20
_2THETA = 40
_KHI = 80
_PHI = 0
_X = 0
_Y = 0
_Z = 0
_DETECTOR = 1
; Detector type : Scintillation counter
_HV = 687
_GAIN = 80
_LLD = 0.69
_ULD = 1.866
_DETECTORSLIT = unkn
_AUX1 = 0
_AUX2 = 0
_AUX3 = 0
_TIMESTARTED = 1.03e+004
_TEMP_RATE = -1
_TEMP_DELAY = -1
_KV = 35
_MA = 40
_RANGE_WL = 1.78897
_3DPLANE = 0
_V4_ADDITIONALDETECTOR = 0
_V4_D8_DIBNUM = 1
_V4_DETECTORNAME = "Detector 1"
_V4_TTLDETECTOR = None
_V4_DETECTORTYPE = 1
_V4_DETECTORFLAGS = 524545
_V4_DETECTORHV = 687
_V4_DETECTORGAIN = 80
_V4_DETECTORLLD1 = 0.69
_V4_DETECTORWW1 = 1.176
_V4_DETECTORLLD2 = 0
_V4_DETECTORWW2 = 0
_V4_DETECTORPS = 0
_V4_DETECTORDT = 0
_V4_DETECTORPILEUPTIME = 0
_V4_COUNTERS_MASK = 1
_V4_DRIVES_MASK = 0
_V4_ENCODERS_MASK = 0
_2THETACOUNTS = 1
; 2THETA  Cnt1_D1
  40.0000        198
  40.4000        189
  40.8000        201
  41.2000        150
  41.6000        193
  42.0000        198
  42.4000        201
  42.8000        258
  43.2000        288
  43.6000        294
  44.0000        223
  44.4000        237
  44.8000        208
  45.2000        209
  45.6000        192
  46.0000        215
  46.4000        225
  46.8000        203
  47.2000        206
  47.6000        200
  48.0000        199
  48.4000        233
  48.8000        222
  49.2000        244
  49.6000        225
  50.0000        241
  50.4000        328
  50.8000        276
  51.2000        363
  51.6000        613
  52.0000        960
  52.4000        968
  52.8000        856
  53.2000        568
  53.6000        287
  54.0000        256
  54.4000        245
  54.8000        260
  55.2000        218
  55.6000        239
  56.0000        241
  56.4000        258
  56.8000        241
  57.2000        226
  57.6000        238
  58.0000        271
  58.4000        246
  58.8000        240
  59.2000        247
  59.6000        245
  60.0000        266
  60.4000        264
  60.8000        233
  61.2000        254
  61.6000        256
  62.0000        221
  62.4000        239
  62.8000        242
  63.2000        261
  63.6000        261
  64.0000        261
  64.4000        264
  64.8000        251
  65.2000        292
  65.6000        277
  66.0000        258
  66.4000        254
  66.8000        254
  67.2000        252
  67.6000        286
  68.0000        272
  68.4000        273
  68.8000        289
  69.2000        268
  69.6000        291
  70.0000        279
  70.4000        278
  70.8000        272
  71.2000        267
  71.6000        294
  72.0000        278
  72.4000        270
  72.8000        301
  73.2000        301
  73.6000        274
  74.0000        307
  74.4000        281
  74.8000        318
  75.2000        298
  75.6000        321
  76.0000        363
  76.4000        335
  76.8000        359
  77.2000        375
  77.6000        342
  78.0000        315
  78.4000        350
  78.8000        289
  79.2000        328
  79.6000        302
  80.0000        372
  80.4000        312
  80.8000        342
  81.2000        340
  81.6000        354
  82.0000        311
  82.4000        331
  82.8000        309
  83.2000        366
  83.6000        323
  84.0000        361
  84.4000        379
  84.8000        316
  85.2000        346
  85.6000        353
  86.0000        351
  86.4000        317
  86.8000        334
  87.2000        367
  87.6000        332
  88.0000        321
  88.4000        360
  88.8000        332
  89.2000        353
  89.6000        356
  90.0000        373
  90.4000        346
  90.8000        344
  91.2000        358
  91.6000        340
  92.0000        389
  92.4000        347
  92.8000        374
  93.2000        384
  93.6000        357
  94.0000        367
  94.4000        389
  94.8000        337
  95.2000        360
  95.6000        387
  96.0000        376
  96.4000        368
  96.8000        401
  97.2000        353
  97.6000        443
  98.0000        453
  98.4000        576
  98.8000        672
  99.2000        653
  99.6000        649
 100.0000        566
 100.4000        453
 100.8000        439
 101.2000        424
 101.6000        368
 102.0000        385
 102.4000        440
 102.8000        414
 103.2000        401
 103.6000        385
 104.0000        402
 104.4000        446
 104.8000        415
 105.2000        398
 105.6000        410
 106.0000        406
 106.4000        413
 106.8000        406
 107.2000        433
 107.6000        416
 108.0000        395
 108.4000        427
 108.8000        477
 109.2000        408
 109.6000        397
 110.0000        436
 110.4000        453
 110.8000        430
 111.2000        424
 111.6000        438
 112.0000        458
 112.4000        413
 112.8000        426
 113.2000        410
 113.6000        464
 114.0000        450
 114.4000        410
 114.8000        430
 115.2000        439
 115.6000        448
 116.0000        450
 116.4000        446
 116.8000        506
 117.2000        431
 117.6000        477
 118.0000        451
 118.4000        468
 118.8000        444
 119.2000        420
 119.6000        433
 120.0000        462
 120.4000        467
 120.8000        439
 121.2000        430
 121.6000        448
 122.0000        451
 122.4000        531
 122.8000        588
 123.2000        554
 123.6000        590
 124.0000        548
 124.4000        479
 124.8000        458
 125.2000        480
 125.6000        422
 126.0000        436
 126.4000        469
 126.8000        416
 127.2000        470
 127.6000        434
 128.0000        475
 128.4000        469
 128.8000        433
 129.2000        466
 129.6000        416
 130.0000        500