File: exp_dat/old/exp_2013_11_11/10pct_30L.uxd
; (content of file C:\DIFFDAT1\GIFT\MDL\Seawoong Lee\20131104_MV8\equal_area_maxkhi080_n8_2th40_130_x25y00_30L.raw)
_FILEVERSION = 3
_SAMPLE =
_+SAMPLE =
_SITE = Korea
_USER = Admin
_GONIOMETER_CODE = 20
; Goniometer : D8 theta/2theta, stage : Unknown
_SAMPLE_CHANGER_CODE = 0
_ATTACHMENTS_CODE = 0
_GONIOMETER_RADIUS = 300
_FIXED_DIVSLIT = 1
_FIXED_SAMPLESLIT = 0
_SOLLER_SLITS = 2
_FIXED_DETSLIT = 0.1
_MONOCHROMATOR = 0
; Incident beam monochromator : None
_SOLLER_SLITS_2 = 2
_THIN_FILM = N
_BETA_FILTER = Y
_FIXED_ANTISLIT = 0.6
_ANALYZER_CODE = 0
; Received beam analyzer : None
_DATEMEASURED = "06-Nov-2013 16:11:57"
_WL_UNIT = A
_WL1 = 1.78897
_WL2 = 1.79285
_WL3 = 1.62079
_WLRATIO = 0.5
_ANODE = Co
_V4_INF_CREATOR = XRDWizard
_V4_INF_CREATOR_VERSION = V2.9.0.22
_V4_INF_WIZARD_VERSION = V2.9.0.22
_V4_INF_WIZARD_ADDINS = V2.9.0.22
_V4_INF_WIZARD_DOCTYPE = XRD
_V4_INF_OSUSER = Postech
_V4_INF_USER = Admin
_V4_INF_SITE = Korea

; Data for range 1
_DRIVE = COUPLED
_STEPTIME = 0.2
_STEPSIZE = 0.1
_STEPMODE = C
_START = 40
_THETA = 20
_2THETA = 40
_KHI = 0
_PHI = 0
_X = 25
_Y = 0
_Z = 0
_DETECTOR = 1
; Detector type : Scintillation counter
_HV = 687
_GAIN = 80
_LLD = 0.69
_ULD = 1.866
_DETECTORSLIT = unkn
_AUX1 = 0
_AUX2 = 0
_AUX3 = 0
_TIMESTARTED = 28
_TEMP_RATE = -1
_TEMP_DELAY = -1
_KV = 35
_MA = 40
_RANGE_WL = 1.78897
_3DPLANE = 0
_V4_ADDITIONALDETECTOR = 0
_V4_D8_DIBNUM = 1
_V4_DETECTORNAME = "Detector 1"
_V4_TTLDETECTOR = None
_V4_DETECTORTYPE = 1
_V4_DETECTORFLAGS = 524545
_V4_DETECTORHV = 687
_V4_DETECTORGAIN = 80
_V4_DETECTORLLD1 = 0.69
_V4_DETECTORWW1 = 1.176
_V4_DETECTORLLD2 = 0
_V4_DETECTORWW2 = 0
_V4_DETECTORPS = 0
_V4_DETECTORDT = 0
_V4_DETECTORPILEUPTIME = 0
_V4_COUNTERS_MASK = 1
_V4_DRIVES_MASK = 0
_V4_ENCODERS_MASK = 0
_2THETACOUNTS = 1
; 2THETA  Cnt1_D1
  40.0000        354
  40.4000        392
  40.8000        383
  41.2000        404
  41.6000        331
  42.0000        410
  42.4000        370
  42.8000        384
  43.2000        381
  43.6000        395
  44.0000        366
  44.4000        417
  44.8000        415
  45.2000        379
  45.6000        400
  46.0000        428
  46.4000        383
  46.8000        368
  47.2000        439
  47.6000        369
  48.0000        423
  48.4000        404
  48.8000        369
  49.2000        439
  49.6000        380
  50.0000        415
  50.4000        446
  50.8000        523
  51.2000        499
  51.6000        590
  52.0000       1243
  52.4000       1357
  52.8000        539
  53.2000        395
  53.6000        454
  54.0000        469
  54.4000        446
  54.8000        461
  55.2000        422
  55.6000        467
  56.0000        459
  56.4000        440
  56.8000        386
  57.2000        464
  57.6000        473
  58.0000        441
  58.4000        471
  58.8000        453
  59.2000        462
  59.6000        489
  60.0000        459
  60.4000        467
  60.8000        468
  61.2000        450
  61.6000        463
  62.0000        454
  62.4000        420
  62.8000        449
  63.2000        472
  63.6000        483
  64.0000        447
  64.4000        440
  64.8000        485
  65.2000        483
  65.6000        498
  66.0000        452
  66.4000        478
  66.8000        459
  67.2000        466
  67.6000        438
  68.0000        462
  68.4000        445
  68.8000        451
  69.2000        473
  69.6000        472
  70.0000        464
  70.4000        446
  70.8000        505
  71.2000        442
  71.6000        467
  72.0000        526
  72.4000        439
  72.8000        437
  73.2000        480
  73.6000        477
  74.0000        469
  74.4000        512
  74.8000        482
  75.2000        508
  75.6000        472
  76.0000        468
  76.4000        626
  76.8000        893
  77.2000        840
  77.6000        601
  78.0000        506
  78.4000        494
  78.8000        478
  79.2000        471
  79.6000        443
  80.0000        482
  80.4000        483
  80.8000        473
  81.2000        465
  81.6000        444
  82.0000        536
  82.4000        546
  82.8000        478
  83.2000        478
  83.6000        513
  84.0000        497
  84.4000        510
  84.8000        519
  85.2000        533
  85.6000        462
  86.0000        474
  86.4000        521
  86.8000        557
  87.2000        481
  87.6000        513
  88.0000        481
  88.4000        543
  88.8000        570
  89.2000        688
  89.6000        649
  90.0000        526
  90.4000        489
  90.8000        506
  91.2000        516
  91.6000        526
  92.0000        520
  92.4000        539
  92.8000        490
  93.2000        483
  93.6000        529
  94.0000        529
  94.4000        503
  94.8000        458
  95.2000        512
  95.6000        525
  96.0000        512
  96.4000        513
  96.8000        527
  97.2000        483
  97.6000        550
  98.0000        507
  98.4000        540
  98.8000        786
  99.2000       1347
  99.6000       1297
 100.0000        731
 100.4000        545
 100.8000        516
 101.2000        507
 101.6000        527
 102.0000        511
 102.4000        503
 102.8000        489
 103.2000        543
 103.6000        525
 104.0000        480
 104.4000        549
 104.8000        508
 105.2000        517
 105.6000        515
 106.0000        521
 106.4000        485
 106.8000        513
 107.2000        527
 107.6000        489
 108.0000        562
 108.4000        492
 108.8000        499
 109.2000        488
 109.6000        537
 110.0000        516
 110.4000        545
 110.8000        568
 111.2000        607
 111.6000        561
 112.0000        492
 112.4000        531
 112.8000        536
 113.2000        509
 113.6000        486
 114.0000        505
 114.4000        520
 114.8000        490
 115.2000        480
 115.6000        527
 116.0000        499
 116.4000        503
 116.8000        536
 117.2000        497
 117.6000        481
 118.0000        483
 118.4000        523
 118.8000        520
 119.2000        510
 119.6000        489
 120.0000        471
 120.4000        545
 120.8000        499
 121.2000        526
 121.6000        514
 122.0000        496
 122.4000        558
 122.8000        529
 123.2000        579
 123.6000        605
 124.0000        576
 124.4000        545
 124.8000        469
 125.2000        502
 125.6000        519
 126.0000        523
 126.4000        476
 126.8000        542
 127.2000        497
 127.6000        466
 128.0000        513
 128.4000        513
 128.8000        491
 129.2000        479
 129.6000        543
 130.0000        560

; Data for range 2
_DRIVE = COUPLED
_STEPTIME = 0.2
_STEPSIZE = 0.1
_STEPMODE = C
_START = 40
_THETA = 20
_2THETA = 40
_KHI = 10.5
_PHI = 60
_X = 25
_Y = 0
_Z = 0
_DETECTOR = 1
; Detector type : Scintillation counter
_HV = 687
_GAIN = 80
_LLD = 0.69
_ULD = 1.866
_DETECTORSLIT = unkn
_AUX1 = 0
_AUX2 = 0
_AUX3 = 0
_TIMESTARTED = 226
_TEMP_RATE = -1
_TEMP_DELAY = -1
_KV = 35
_MA = 40
_RANGE_WL = 1.78897
_3DPLANE = 0
_V4_ADDITIONALDETECTOR = 0
_V4_D8_DIBNUM = 1
_V4_DETECTORNAME = "Detector 1"
_V4_TTLDETECTOR = None
_V4_DETECTORTYPE = 1
_V4_DETECTORFLAGS = 524545
_V4_DETECTORHV = 687
_V4_DETECTORGAIN = 80
_V4_DETECTORLLD1 = 0.69
_V4_DETECTORWW1 = 1.176
_V4_DETECTORLLD2 = 0
_V4_DETECTORWW2 = 0
_V4_DETECTORPS = 0
_V4_DETECTORDT = 0
_V4_DETECTORPILEUPTIME = 0
_V4_COUNTERS_MASK = 1
_V4_DRIVES_MASK = 0
_V4_ENCODERS_MASK = 0
_2THETACOUNTS = 1
; 2THETA  Cnt1_D1
  40.0000        534
  40.4000        558
  40.8000        554
  41.2000        537
  41.6000        500
  42.0000        524
  42.4000        495
  42.8000        548
  43.2000        536
  43.6000        493
  44.0000        534
  44.4000        506
  44.8000        542
  45.2000        553
  45.6000        568
  46.0000        541
  46.4000        564
  46.8000        552
  47.2000        536
  47.6000        515
  48.0000        498
  48.4000        509
  48.8000        534
  49.2000        509
  49.6000        532
  50.0000        529
  50.4000        588
  50.8000        679
  51.2000        634
  51.6000        784
  52.0000       1252
  52.4000       1296
  52.8000        557
  53.2000        534
  53.6000        556
  54.0000        554
  54.4000        569
  54.8000        534
  55.2000        515
  55.6000        509
  56.0000        509
  56.4000        515
  56.8000        548
  57.2000        493
  57.6000        518
  58.0000        533
  58.4000        526
  58.8000        477
  59.2000        565
  59.6000        578
  60.0000        538
  60.4000        543
  60.8000        500
  61.2000        481
  61.6000        520
  62.0000        532
  62.4000        477
  62.8000        549
  63.2000        520
  63.6000        532
  64.0000        517
  64.4000        529
  64.8000        532
  65.2000        498
  65.6000        489
  66.0000        525
  66.4000        515
  66.8000        503
  67.2000        551
  67.6000        506
  68.0000        501
  68.4000        519
  68.8000        511
  69.2000        540
  69.6000        503
  70.0000        510
  70.4000        538
  70.8000        518
  71.2000        503
  71.6000        495
  72.0000        506
  72.4000        530
  72.8000        515
  73.2000        502
  73.6000        522
  74.0000        499
  74.4000        543
  74.8000        516
  75.2000        504
  75.6000        521
  76.0000        500
  76.4000        601
  76.8000        795
  77.2000        808
  77.6000        535
  78.0000        506
  78.4000        522
  78.8000        501
  79.2000        486
  79.6000        530
  80.0000        520
  80.4000        527
  80.8000        486
  81.2000        500
  81.6000        513
  82.0000        544
  82.4000        470
  82.8000        535
  83.2000        513
  83.6000        479
  84.0000        530
  84.4000        517
  84.8000        532
  85.2000        499
  85.6000        528
  86.0000        486
  86.4000        492
  86.8000        525
  87.2000        502
  87.6000        512
  88.0000        556
  88.4000        537
  88.8000        578
  89.2000        659
  89.6000        597
  90.0000        492
  90.4000        469
  90.8000        533
  91.2000        545
  91.6000        503
  92.0000        472
  92.4000        511
  92.8000        524
  93.2000        509
  93.6000        507
  94.0000        517
  94.4000        513
  94.8000        500
  95.2000        520
  95.6000        515
  96.0000        508
  96.4000        554
  96.8000        545
  97.2000        530
  97.6000        496
  98.0000        533
  98.4000        529
  98.8000        721
  99.2000       1071
  99.6000       1044
 100.0000        678
 100.4000        496
 100.8000        500
 101.2000        479
 101.6000        559
 102.0000        505
 102.4000        487
 102.8000        499
 103.2000        585
 103.6000        546
 104.0000        512
 104.4000        545
 104.8000        509
 105.2000        526
 105.6000        525
 106.0000        502
 106.4000        493
 106.8000        490
 107.2000        497
 107.6000        504
 108.0000        475
 108.4000        477
 108.8000        532
 109.2000        555
 109.6000        516
 110.0000        521
 110.4000        588
 110.8000        618
 111.2000        625
 111.6000        549
 112.0000        500
 112.4000        501
 112.8000        500
 113.2000        518
 113.6000        512
 114.0000        516
 114.4000        495
 114.8000        517
 115.2000        544
 115.6000        519
 116.0000        508
 116.4000        512
 116.8000        491
 117.2000        530
 117.6000        498
 118.0000        516
 118.4000        515
 118.8000        519
 119.2000        522
 119.6000        517
 120.0000        524
 120.4000        491
 120.8000        547
 121.2000        531
 121.6000        523
 122.0000        535
 122.4000        498
 122.8000        581
 123.2000        588
 123.6000        618
 124.0000        557
 124.4000        510
 124.8000        485
 125.2000        509
 125.6000        511
 126.0000        510
 126.4000        519
 126.8000        511
 127.2000        495
 127.6000        495
 128.0000        519
 128.4000        508
 128.8000        521
 129.2000        501
 129.6000        504
 130.0000        510

; Data for range 3
_DRIVE = COUPLED
_STEPTIME = 0.2
_STEPSIZE = 0.1
_STEPMODE = C
_START = 40
_THETA = 20
_2THETA = 40
_KHI = 18.3
_PHI = 90
_X = 25
_Y = 0
_Z = 0
_DETECTOR = 1
; Detector type : Scintillation counter
_HV = 687
_GAIN = 80
_LLD = 0.69
_ULD = 1.866
_DETECTORSLIT = unkn
_AUX1 = 0
_AUX2 = 0
_AUX3 = 0
_TIMESTARTED = 423
_TEMP_RATE = -1
_TEMP_DELAY = -1
_KV = 35
_MA = 40
_RANGE_WL = 1.78897
_3DPLANE = 0
_V4_ADDITIONALDETECTOR = 0
_V4_D8_DIBNUM = 1
_V4_DETECTORNAME = "Detector 1"
_V4_TTLDETECTOR = None
_V4_DETECTORTYPE = 1
_V4_DETECTORFLAGS = 524545
_V4_DETECTORHV = 687
_V4_DETECTORGAIN = 80
_V4_DETECTORLLD1 = 0.69
_V4_DETECTORWW1 = 1.176
_V4_DETECTORLLD2 = 0
_V4_DETECTORWW2 = 0
_V4_DETECTORPS = 0
_V4_DETECTORDT = 0
_V4_DETECTORPILEUPTIME = 0
_V4_COUNTERS_MASK = 1
_V4_DRIVES_MASK = 0
_V4_ENCODERS_MASK = 0
_2THETACOUNTS = 1
; 2THETA  Cnt1_D1
  40.0000        542
  40.4000        527
  40.8000        488
  41.2000        522
  41.6000        536
  42.0000        509
  42.4000        580
  42.8000        527
  43.2000        510
  43.6000        528
  44.0000        557
  44.4000        522
  44.8000        520
  45.2000        534
  45.6000        503
  46.0000        525
  46.4000        501
  46.8000        494
  47.2000        557
  47.6000        494
  48.0000        545
  48.4000        516
  48.8000        525
  49.2000        571
  49.6000        529
  50.0000        589
  50.4000        602
  50.8000        669
  51.2000        654
  51.6000        859
  52.0000       1440
  52.4000       1413
  52.8000        606
  53.2000        539
  53.6000        512
  54.0000        529
  54.4000        522
  54.8000        508
  55.2000        550
  55.6000        513
  56.0000        583
  56.4000        508
  56.8000        520
  57.2000        488
  57.6000        509
  58.0000        502
  58.4000        518
  58.8000        535
  59.2000        583
  59.6000        621
  60.0000        587
  60.4000        512
  60.8000        528
  61.2000        535
  61.6000        510
  62.0000        529
  62.4000        567
  62.8000        534
  63.2000        508
  63.6000        504
  64.0000        534
  64.4000        566
  64.8000        496
  65.2000        481
  65.6000        534
  66.0000        494
  66.4000        501
  66.8000        515
  67.2000        470
  67.6000        536
  68.0000        506
  68.4000        543
  68.8000        534
  69.2000        509
  69.6000        536
  70.0000        533
  70.4000        516
  70.8000        510
  71.2000        546
  71.6000        514
  72.0000        541
  72.4000        514
  72.8000        472
  73.2000        486
  73.6000        495
  74.0000        502
  74.4000        508
  74.8000        501
  75.2000        511
  75.6000        502
  76.0000        510
  76.4000        657
  76.8000        885
  77.2000        856
  77.6000        604
  78.0000        551
  78.4000        497
  78.8000        522
  79.2000        452
  79.6000        509
  80.0000        489
  80.4000        518
  80.8000        523
  81.2000        544
  81.6000        494
  82.0000        514
  82.4000        470
  82.8000        475
  83.2000        500
  83.6000        521
  84.0000        514
  84.4000        482
  84.8000        470
  85.2000        495
  85.6000        507
  86.0000        515
  86.4000        478
  86.8000        529
  87.2000        538
  87.6000        539
  88.0000        501
  88.4000        513
  88.8000        554
  89.2000        679
  89.6000        626
  90.0000        519
  90.4000        566
  90.8000        525
  91.2000        478
  91.6000        496
  92.0000        512
  92.4000        503
  92.8000        530
  93.2000        492
  93.6000        501
  94.0000        538
  94.4000        560
  94.8000        474
  95.2000        517
  95.6000        525
  96.0000        508
  96.4000        493
  96.8000        524
  97.2000        498
  97.6000        559
  98.0000        520
  98.4000        543
  98.8000        865
  99.2000       1139
  99.6000       1063
 100.0000        685
 100.4000        554
 100.8000        498
 101.2000        505
 101.6000        528
 102.0000        540
 102.4000        506
 102.8000        542
 103.2000        468
 103.6000        486
 104.0000        546
 104.4000        552
 104.8000        506
 105.2000        534
 105.6000        502
 106.0000        497
 106.4000        500
 106.8000        542
 107.2000        511
 107.6000        520
 108.0000        522
 108.4000        495
 108.8000        507
 109.2000        572
 109.6000        515
 110.0000        468
 110.4000        532
 110.8000        595
 111.2000        627
 111.6000        543
 112.0000        555
 112.4000        534
 112.8000        492
 113.2000        511
 113.6000        519
 114.0000        540
 114.4000        549
 114.8000        513
 115.2000        545
 115.6000        518
 116.0000        512
 116.4000        519
 116.8000        544
 117.2000        504
 117.6000        487
 118.0000        534
 118.4000        491
 118.8000        493
 119.2000        509
 119.6000        524
 120.0000        484
 120.4000        576
 120.8000        502
 121.2000        495
 121.6000        565
[...]
  72.4000        255
  72.8000        251
  73.2000        223
  73.6000        253
  74.0000        248
  74.4000        237
  74.8000        240
  75.2000        278
  75.6000        284
  76.0000        303
  76.4000        302
  76.8000        290
  77.2000        288
  77.6000        303
  78.0000        264
  78.4000        263
  78.8000        261
  79.2000        272
  79.6000        281
  80.0000        295
  80.4000        285
  80.8000        251
  81.2000        283
  81.6000        292
  82.0000        260
  82.4000        298
  82.8000        266
  83.2000        303
  83.6000        260
  84.0000        309
  84.4000        306
  84.8000        263
  85.2000        303
  85.6000        283
  86.0000        275
  86.4000        282
  86.8000        285
  87.2000        295
  87.6000        314
  88.0000        299
  88.4000        316
  88.8000        329
  89.2000        327
  89.6000        316
  90.0000        299
  90.4000        293
  90.8000        338
  91.2000        349
  91.6000        321
  92.0000        378
  92.4000        403
  92.8000        296
  93.2000        303
  93.6000        326
  94.0000        334
  94.4000        304
  94.8000        345
  95.2000        333
  95.6000        332
  96.0000        346
  96.4000        300
  96.8000        337
  97.2000        311
  97.6000        346
  98.0000        369
  98.4000        372
  98.8000        484
  99.2000        509
  99.6000        460
 100.0000        453
 100.4000        377
 100.8000        364
 101.2000        366
 101.6000        349
 102.0000        349
 102.4000        306
 102.8000        382
 103.2000        303
 103.6000        360
 104.0000        338
 104.4000        366
 104.8000        332
 105.2000        361
 105.6000        388
 106.0000        341
 106.4000        372
 106.8000        344
 107.2000        343
 107.6000        346
 108.0000        301
 108.4000        349
 108.8000        350
 109.2000        349
 109.6000        353
 110.0000        379
 110.4000        407
 110.8000        386
 111.2000        384
 111.6000        380
 112.0000        314
 112.4000        394
 112.8000        361
 113.2000        342
 113.6000        408
 114.0000        347
 114.4000        365
 114.8000        320
 115.2000        356
 115.6000        357
 116.0000        373
 116.4000        396
 116.8000        381
 117.2000        398
 117.6000        376
 118.0000        340
 118.4000        401
 118.8000        404
 119.2000        342
 119.6000        359
 120.0000        375
 120.4000        392
 120.8000        360
 121.2000        379
 121.6000        385
 122.0000        372
 122.4000        383
 122.8000        446
 123.2000        480
 123.6000        457
 124.0000        449
 124.4000        412
 124.8000        396
 125.2000        368
 125.6000        416
 126.0000        359
 126.4000        348
 126.8000        398
 127.2000        370
 127.6000        404
 128.0000        378
 128.4000        413
 128.8000        331
 129.2000        376
 129.6000        393
 130.0000        368

; Data for range 53
_DRIVE = COUPLED
_STEPTIME = 0.2
_STEPSIZE = 0.1
_STEPMODE = C
_START = 40
_THETA = 20
_2THETA = 40
_KHI = 80
_PHI = 0
_X = 25
_Y = 0
_Z = 0
_DETECTOR = 1
; Detector type : Scintillation counter
_HV = 687
_GAIN = 80
_LLD = 0.69
_ULD = 1.866
_DETECTORSLIT = unkn
_AUX1 = 0
_AUX2 = 0
_AUX3 = 0
_TIMESTARTED = 1.03e+004
_TEMP_RATE = -1
_TEMP_DELAY = -1
_KV = 35
_MA = 40
_RANGE_WL = 1.78897
_3DPLANE = 0
_V4_ADDITIONALDETECTOR = 0
_V4_D8_DIBNUM = 1
_V4_DETECTORNAME = "Detector 1"
_V4_TTLDETECTOR = None
_V4_DETECTORTYPE = 1
_V4_DETECTORFLAGS = 524545
_V4_DETECTORHV = 687
_V4_DETECTORGAIN = 80
_V4_DETECTORLLD1 = 0.69
_V4_DETECTORWW1 = 1.176
_V4_DETECTORLLD2 = 0
_V4_DETECTORWW2 = 0
_V4_DETECTORPS = 0
_V4_DETECTORDT = 0
_V4_DETECTORPILEUPTIME = 0
_V4_COUNTERS_MASK = 1
_V4_DRIVES_MASK = 0
_V4_ENCODERS_MASK = 0
_2THETACOUNTS = 1
; 2THETA  Cnt1_D1
  40.0000        149
  40.4000        140
  40.8000        147
  41.2000        134
  41.6000        139
  42.0000        140
  42.4000        160
  42.8000        201
  43.2000        227
  43.6000        233
  44.0000        184
  44.4000        162
  44.8000        139
  45.2000        149
  45.6000        150
  46.0000        162
  46.4000        155
  46.8000        164
  47.2000        132
  47.6000        135
  48.0000        130
  48.4000        167
  48.8000        144
  49.2000        148
  49.6000        192
  50.0000        185
  50.4000        215
  50.8000        286
  51.2000        307
  51.6000        370
  52.0000        481
  52.4000        666
  52.8000        581
  53.2000        372
  53.6000        201
  54.0000        150
  54.4000        166
  54.8000        155
  55.2000        167
  55.6000        157
  56.0000        163
  56.4000        185
  56.8000        174
  57.2000        175
  57.6000        165
  58.0000        176
  58.4000        161
  58.8000        178
  59.2000        173
  59.6000        191
  60.0000        220
  60.4000        179
  60.8000        163
  61.2000        167
  61.6000        161
  62.0000        158
  62.4000        169
  62.8000        162
  63.2000        161
  63.6000        187
  64.0000        165
  64.4000        164
  64.8000        173
  65.2000        157
  65.6000        154
  66.0000        166
  66.4000        189
  66.8000        153
  67.2000        190
  67.6000        175
  68.0000        192
  68.4000        168
  68.8000        179
  69.2000        185
  69.6000        199
  70.0000        167
  70.4000        191
  70.8000        169
  71.2000        203
  71.6000        175
  72.0000        190
  72.4000        181
  72.8000        206
  73.2000        177
  73.6000        163
  74.0000        188
  74.4000        202
  74.8000        190
  75.2000        162
  75.6000        176
  76.0000        173
  76.4000        203
  76.8000        218
  77.2000        241
  77.6000        243
  78.0000        221
  78.4000        202
  78.8000        176
  79.2000        185
  79.6000        189
  80.0000        208
  80.4000        170
  80.8000        181
  81.2000        178
  81.6000        170
  82.0000        184
  82.4000        195
  82.8000        184
  83.2000        197
  83.6000        192
  84.0000        195
  84.4000        191
  84.8000        203
  85.2000        202
  85.6000        187
  86.0000        200
  86.4000        186
  86.8000        195
  87.2000        217
  87.6000        196
  88.0000        188
  88.4000        204
  88.8000        219
  89.2000        187
  89.6000        199
  90.0000        225
  90.4000        207
  90.8000        194
  91.2000        205
  91.6000        230
  92.0000        196
  92.4000        207
  92.8000        193
  93.2000        199
  93.6000        202
  94.0000        218
  94.4000        205
  94.8000        206
  95.2000        183
  95.6000        216
  96.0000        198
  96.4000        221
  96.8000        237
  97.2000        209
  97.6000        223
  98.0000        236
  98.4000        219
  98.8000        294
  99.2000        294
  99.6000        385
 100.0000        334
 100.4000        286
 100.8000        239
 101.2000        234
 101.6000        210
 102.0000        237
 102.4000        212
 102.8000        236
 103.2000        230
 103.6000        247
 104.0000        272
 104.4000        249
 104.8000        234
 105.2000        242
 105.6000        264
 106.0000        221
 106.4000        253
 106.8000        237
 107.2000        238
 107.6000        236
 108.0000        246
 108.4000        243
 108.8000        248
 109.2000        246
 109.6000        232
 110.0000        277
 110.4000        273
 110.8000        274
 111.2000        288
 111.6000        288
 112.0000        265
 112.4000        277
 112.8000        275
 113.2000        285
 113.6000        245
 114.0000        296
 114.4000        278
 114.8000        278
 115.2000        285
 115.6000        247
 116.0000        273
 116.4000        267
 116.8000        270
 117.2000        288
 117.6000        255
 118.0000        292
 118.4000        321
 118.8000        328
 119.2000        307
 119.6000        304
 120.0000        297
 120.4000        299
 120.8000        319
 121.2000        294
 121.6000        333
 122.0000        265
 122.4000        294
 122.8000        366
 123.2000        385
 123.6000        406
 124.0000        390
 124.4000        358
 124.8000        296
 125.2000        269
 125.6000        323
 126.0000        323
 126.4000        326
 126.8000        298
 127.2000        288
 127.6000        330
 128.0000        297
 128.4000        286
 128.8000        308
 129.2000        326
 129.6000        302
 130.0000        304