File: exp_dat/old/exp_2013_11_11/11pct_30G.uxd
; (content of file C:\DIFFDAT1\GIFT\MDL\Seawoong Lee\20131104_MV8\equal_area_maxkhi080_n8_2th40_130_x00y-25_30g.raw)
_FILEVERSION = 3
_SAMPLE =
_+SAMPLE =
_SITE = Korea
_USER = Admin
_GONIOMETER_CODE = 20
; Goniometer : D8 theta/2theta, stage : Unknown
_SAMPLE_CHANGER_CODE = 0
_ATTACHMENTS_CODE = 0
_GONIOMETER_RADIUS = 300
_FIXED_DIVSLIT = 1
_FIXED_SAMPLESLIT = 0
_SOLLER_SLITS = 2
_FIXED_DETSLIT = 0.1
_MONOCHROMATOR = 0
; Incident beam monochromator : None
_SOLLER_SLITS_2 = 2
_THIN_FILM = N
_BETA_FILTER = Y
_FIXED_ANTISLIT = 0.6
_ANALYZER_CODE = 0
; Received beam analyzer : None
_DATEMEASURED = "08-Nov-2013 21:37:44"
_WL_UNIT = A
_WL1 = 1.78897
_WL2 = 1.79285
_WL3 = 1.62079
_WLRATIO = 0.5
_ANODE = Co
_V4_INF_CREATOR = XRDWizard
_V4_INF_CREATOR_VERSION = V2.9.0.22
_V4_INF_WIZARD_VERSION = V2.9.0.22
_V4_INF_WIZARD_ADDINS = V2.9.0.22
_V4_INF_WIZARD_DOCTYPE = XRD
_V4_INF_OSUSER = Postech
_V4_INF_USER = Admin
_V4_INF_SITE = Korea

; Data for range 1
_DRIVE = COUPLED
_STEPTIME = 0.2
_STEPSIZE = 0.1
_STEPMODE = C
_START = 40
_THETA = 20
_2THETA = 40
_KHI = 0
_PHI = 0
_X = 0
_Y = -25
_Z = 0
_DETECTOR = 1
; Detector type : Scintillation counter
_HV = 687
_GAIN = 80
_LLD = 0.69
_ULD = 1.866
_DETECTORSLIT = unkn
_AUX1 = 0
_AUX2 = 0
_AUX3 = 0
_TIMESTARTED = 28
_TEMP_RATE = -1
_TEMP_DELAY = -1
_KV = 35
_MA = 40
_RANGE_WL = 1.78897
_3DPLANE = 0
_V4_ADDITIONALDETECTOR = 0
_V4_D8_DIBNUM = 1
_V4_DETECTORNAME = "Detector 1"
_V4_TTLDETECTOR = None
_V4_DETECTORTYPE = 1
_V4_DETECTORFLAGS = 524545
_V4_DETECTORHV = 687
_V4_DETECTORGAIN = 80
_V4_DETECTORLLD1 = 0.69
_V4_DETECTORWW1 = 1.176
_V4_DETECTORLLD2 = 0
_V4_DETECTORWW2 = 0
_V4_DETECTORPS = 0
_V4_DETECTORDT = 0
_V4_DETECTORPILEUPTIME = 0
_V4_COUNTERS_MASK = 1
_V4_DRIVES_MASK = 0
_V4_ENCODERS_MASK = 0
_2THETACOUNTS = 1
; 2THETA  Cnt1_D1
  40.0000        449
  40.4000        481
  40.8000        452
  41.2000        512
  41.6000        469
  42.0000        451
  42.4000        466
  42.8000        505
  43.2000        456
  43.6000        479
  44.0000        499
  44.4000        517
  44.8000        455
  45.2000        453
  45.6000        513
  46.0000        498
  46.4000        461
  46.8000        528
  47.2000        523
  47.6000        518
  48.0000        455
  48.4000        512
  48.8000        485
  49.2000        520
  49.6000        502
  50.0000        496
  50.4000        525
  50.8000        503
  51.2000        558
  51.6000        711
  52.0000       1118
  52.4000       1131
  52.8000        632
  53.2000        533
  53.6000        480
  54.0000        538
  54.4000        426
  54.8000        534
  55.2000        507
  55.6000        535
  56.0000        514
  56.4000        508
  56.8000        551
  57.2000        500
  57.6000        473
  58.0000        496
  58.4000        522
  58.8000        556
  59.2000        539
  59.6000        527
  60.0000        498
  60.4000        512
  60.8000        546
  61.2000        528
  61.6000        529
  62.0000        507
  62.4000        484
  62.8000        539
  63.2000        522
  63.6000        493
  64.0000        508
  64.4000        477
  64.8000        504
  65.2000        531
  65.6000        538
  66.0000        513
  66.4000        523
  66.8000        509
  67.2000        497
  67.6000        473
  68.0000        490
  68.4000        523
  68.8000        492
  69.2000        539
  69.6000        512
  70.0000        488
  70.4000        505
  70.8000        514
  71.2000        510
  71.6000        523
  72.0000        520
  72.4000        503
  72.8000        499
  73.2000        474
  73.6000        494
  74.0000        456
  74.4000        507
  74.8000        469
  75.2000        532
  75.6000        543
  76.0000        624
  76.4000       1012
  76.8000       1230
  77.2000        964
  77.6000        645
  78.0000        526
  78.4000        503
  78.8000        515
  79.2000        562
  79.6000        529
  80.0000        525
  80.4000        528
  80.8000        507
  81.2000        503
  81.6000        521
  82.0000        531
  82.4000        508
  82.8000        508
  83.2000        499
  83.6000        512
  84.0000        484
  84.4000        497
  84.8000        522
  85.2000        515
  85.6000        489
  86.0000        479
  86.4000        514
  86.8000        498
  87.2000        488
  87.6000        534
  88.0000        526
  88.4000        499
  88.8000        525
  89.2000        551
  89.6000        531
  90.0000        560
  90.4000        483
  90.8000        554
  91.2000        490
  91.6000        513
  92.0000        496
  92.4000        520
  92.8000        490
  93.2000        522
  93.6000        478
  94.0000        483
  94.4000        539
  94.8000        505
  95.2000        540
  95.6000        526
  96.0000        478
  96.4000        502
  96.8000        517
  97.2000        484
  97.6000        557
  98.0000        555
  98.4000        679
  98.8000       1166
  99.2000       1577
  99.6000       1221
 100.0000        831
 100.4000        635
 100.8000        556
 101.2000        519
 101.6000        555
 102.0000        517
 102.4000        520
 102.8000        507
 103.2000        539
 103.6000        497
 104.0000        527
 104.4000        476
 104.8000        509
 105.2000        521
 105.6000        477
 106.0000        500
 106.4000        529
 106.8000        511
 107.2000        508
 107.6000        504
 108.0000        517
 108.4000        485
 108.8000        462
 109.2000        569
 109.6000        531
 110.0000        466
 110.4000        500
 110.8000        514
 111.2000        522
 111.6000        530
 112.0000        509
 112.4000        492
 112.8000        467
 113.2000        529
 113.6000        524
 114.0000        494
 114.4000        519
 114.8000        485
 115.2000        499
 115.6000        540
 116.0000        465
 116.4000        550
 116.8000        511
 117.2000        472
 117.6000        476
 118.0000        496
 118.4000        522
 118.8000        512
 119.2000        506
 119.6000        497
 120.0000        493
 120.4000        502
 120.8000        516
 121.2000        488
 121.6000        522
 122.0000        516
 122.4000        445
 122.8000        530
 123.2000        553
 123.6000        550
 124.0000        532
 124.4000        519
 124.8000        489
 125.2000        486
 125.6000        505
 126.0000        514
 126.4000        511
 126.8000        495
 127.2000        517
 127.6000        452
 128.0000        477
 128.4000        488
 128.8000        491
 129.2000        527
 129.6000        503
 130.0000        555

; Data for range 2
_DRIVE = COUPLED
_STEPTIME = 0.2
_STEPSIZE = 0.1
_STEPMODE = C
_START = 40
_THETA = 20
_2THETA = 40
_KHI = 10.5
_PHI = 60
_X = 0
_Y = -25
_Z = 0
_DETECTOR = 1
; Detector type : Scintillation counter
_HV = 687
_GAIN = 80
_LLD = 0.69
_ULD = 1.866
_DETECTORSLIT = unkn
_AUX1 = 0
_AUX2 = 0
_AUX3 = 0
_TIMESTARTED = 225
_TEMP_RATE = -1
_TEMP_DELAY = -1
_KV = 35
_MA = 40
_RANGE_WL = 1.78897
_3DPLANE = 0
_V4_ADDITIONALDETECTOR = 0
_V4_D8_DIBNUM = 1
_V4_DETECTORNAME = "Detector 1"
_V4_TTLDETECTOR = None
_V4_DETECTORTYPE = 1
_V4_DETECTORFLAGS = 524545
_V4_DETECTORHV = 687
_V4_DETECTORGAIN = 80
_V4_DETECTORLLD1 = 0.69
_V4_DETECTORWW1 = 1.176
_V4_DETECTORLLD2 = 0
_V4_DETECTORWW2 = 0
_V4_DETECTORPS = 0
_V4_DETECTORDT = 0
_V4_DETECTORPILEUPTIME = 0
_V4_COUNTERS_MASK = 1
_V4_DRIVES_MASK = 0
_V4_ENCODERS_MASK = 0
_2THETACOUNTS = 1
; 2THETA  Cnt1_D1
  40.0000        549
  40.4000        523
  40.8000        545
  41.2000        532
  41.6000        509
  42.0000        503
  42.4000        491
  42.8000        539
  43.2000        537
  43.6000        481
  44.0000        504
  44.4000        511
  44.8000        494
  45.2000        497
  45.6000        517
  46.0000        490
  46.4000        516
  46.8000        521
  47.2000        518
  47.6000        514
  48.0000        518
  48.4000        512
  48.8000        458
  49.2000        548
  49.6000        512
  50.0000        507
  50.4000        503
  50.8000        563
  51.2000        545
  51.6000        824
  52.0000       1277
  52.4000       1169
  52.8000        679
  53.2000        522
  53.6000        522
  54.0000        507
  54.4000        485
  54.8000        532
  55.2000        509
  55.6000        516
  56.0000        522
  56.4000        516
  56.8000        515
  57.2000        520
  57.6000        489
  58.0000        529
  58.4000        537
  58.8000        523
  59.2000        543
  59.6000        508
  60.0000        496
  60.4000        497
  60.8000        494
  61.2000        532
  61.6000        499
  62.0000        469
  62.4000        494
  62.8000        535
  63.2000        501
  63.6000        470
  64.0000        521
  64.4000        481
  64.8000        490
  65.2000        517
  65.6000        486
  66.0000        547
  66.4000        489
  66.8000        526
  67.2000        511
  67.6000        494
  68.0000        480
  68.4000        497
  68.8000        495
  69.2000        513
  69.6000        475
  70.0000        465
  70.4000        512
  70.8000        489
  71.2000        543
  71.6000        517
  72.0000        520
  72.4000        509
  72.8000        524
  73.2000        496
  73.6000        501
  74.0000        502
  74.4000        495
  74.8000        497
  75.2000        530
  75.6000        533
  76.0000        574
  76.4000        720
  76.8000        781
  77.2000        642
  77.6000        563
  78.0000        535
  78.4000        510
  78.8000        491
  79.2000        517
  79.6000        506
  80.0000        527
  80.4000        516
  80.8000        492
  81.2000        518
  81.6000        467
  82.0000        505
  82.4000        528
  82.8000        521
  83.2000        468
  83.6000        461
  84.0000        519
  84.4000        517
  84.8000        490
  85.2000        495
  85.6000        503
  86.0000        526
  86.4000        456
  86.8000        475
  87.2000        479
  87.6000        465
  88.0000        495
  88.4000        498
  88.8000        500
  89.2000        549
  89.6000        468
  90.0000        521
  90.4000        491
  90.8000        500
  91.2000        545
  91.6000        517
  92.0000        475
  92.4000        494
  92.8000        511
  93.2000        503
  93.6000        470
  94.0000        521
  94.4000        463
  94.8000        495
  95.2000        505
  95.6000        502
  96.0000        514
  96.4000        512
  96.8000        455
  97.2000        511
  97.6000        483
  98.0000        540
  98.4000        595
  98.8000        814
  99.2000       1071
  99.6000        985
 100.0000        662
 100.4000        551
 100.8000        531
 101.2000        503
 101.6000        536
 102.0000        535
 102.4000        484
 102.8000        540
 103.2000        486
 103.6000        518
 104.0000        509
 104.4000        541
 104.8000        507
 105.2000        509
 105.6000        490
 106.0000        528
 106.4000        498
 106.8000        500
 107.2000        506
 107.6000        480
 108.0000        527
 108.4000        516
 108.8000        518
 109.2000        494
 109.6000        481
 110.0000        538
 110.4000        488
 110.8000        522
 111.2000        520
 111.6000        493
 112.0000        478
 112.4000        543
 112.8000        528
 113.2000        517
 113.6000        470
 114.0000        482
 114.4000        465
 114.8000        492
 115.2000        518
 115.6000        528
 116.0000        500
 116.4000        523
 116.8000        506
 117.2000        512
 117.6000        546
 118.0000        485
 118.4000        455
 118.8000        479
 119.2000        486
 119.6000        521
 120.0000        495
 120.4000        480
 120.8000        537
 121.2000        479
 121.6000        551
 122.0000        508
 122.4000        538
 122.8000        537
 123.2000        561
 123.6000        546
 124.0000        554
 124.4000        504
 124.8000        526
 125.2000        456
 125.6000        506
 126.0000        551
 126.4000        514
 126.8000        525
 127.2000        522
 127.6000        530
 128.0000        499
 128.4000        509
 128.8000        507
 129.2000        514
 129.6000        464
 130.0000        454

; Data for range 3
_DRIVE = COUPLED
_STEPTIME = 0.2
_STEPSIZE = 0.1
_STEPMODE = C
_START = 40
_THETA = 20
_2THETA = 40
_KHI = 18.3
_PHI = 90
_X = 0
_Y = -25
_Z = 0
_DETECTOR = 1
; Detector type : Scintillation counter
_HV = 687
_GAIN = 80
_LLD = 0.69
_ULD = 1.866
_DETECTORSLIT = unkn
_AUX1 = 0
_AUX2 = 0
_AUX3 = 0
_TIMESTARTED = 422
_TEMP_RATE = -1
_TEMP_DELAY = -1
_KV = 35
_MA = 40
_RANGE_WL = 1.78897
_3DPLANE = 0
_V4_ADDITIONALDETECTOR = 0
_V4_D8_DIBNUM = 1
_V4_DETECTORNAME = "Detector 1"
_V4_TTLDETECTOR = None
_V4_DETECTORTYPE = 1
_V4_DETECTORFLAGS = 524545
_V4_DETECTORHV = 687
_V4_DETECTORGAIN = 80
_V4_DETECTORLLD1 = 0.69
_V4_DETECTORWW1 = 1.176
_V4_DETECTORLLD2 = 0
_V4_DETECTORWW2 = 0
_V4_DETECTORPS = 0
_V4_DETECTORDT = 0
_V4_DETECTORPILEUPTIME = 0
_V4_COUNTERS_MASK = 1
_V4_DRIVES_MASK = 0
_V4_ENCODERS_MASK = 0
_2THETACOUNTS = 1
; 2THETA  Cnt1_D1
  40.0000        526
  40.4000        518
  40.8000        531
  41.2000        491
  41.6000        526
  42.0000        537
  42.4000        526
  42.8000        513
  43.2000        514
  43.6000        478
  44.0000        495
  44.4000        540
  44.8000        469
  45.2000        510
  45.6000        517
  46.0000        523
  46.4000        492
  46.8000        537
  47.2000        544
  47.6000        533
  48.0000        496
  48.4000        475
  48.8000        509
  49.2000        496
  49.6000        510
  50.0000        552
  50.4000        567
  50.8000        579
  51.2000        643
  51.6000       1330
  52.0000       2376
  52.4000       2032
  52.8000        828
  53.2000        578
  53.6000        555
  54.0000        564
  54.4000        499
  54.8000        532
  55.2000        528
  55.6000        512
  56.0000        522
  56.4000        554
  56.8000        519
  57.2000        560
  57.6000        508
  58.0000        473
  58.4000        490
  58.8000        548
  59.2000        537
  59.6000        510
  60.0000        528
  60.4000        474
  60.8000        499
  61.2000        451
  61.6000        483
  62.0000        517
  62.4000        520
  62.8000        474
  63.2000        485
  63.6000        503
  64.0000        517
  64.4000        525
  64.8000        514
  65.2000        478
  65.6000        495
  66.0000        501
  66.4000        482
  66.8000        493
  67.2000        482
  67.6000        518
  68.0000        513
  68.4000        473
  68.8000        514
  69.2000        550
  69.6000        495
  70.0000        474
  70.4000        480
  70.8000        515
  71.2000        511
  71.6000        509
  72.0000        494
  72.4000        524
  72.8000        489
  73.2000        498
  73.6000        507
  74.0000        520
  74.4000        523
  74.8000        524
  75.2000        501
  75.6000        531
  76.0000        583
  76.4000        544
  76.8000        610
  77.2000        547
  77.6000        554
  78.0000        557
  78.4000        480
  78.8000        496
  79.2000        506
  79.6000        530
  80.0000        501
  80.4000        531
  80.8000        485
  81.2000        534
  81.6000        501
  82.0000        501
  82.4000        483
  82.8000        493
  83.2000        516
  83.6000        509
  84.0000        508
  84.4000        534
  84.8000        517
  85.2000        491
  85.6000        504
  86.0000        526
  86.4000        485
  86.8000        537
  87.2000        518
  87.6000        528
  88.0000        466
  88.4000        510
  88.8000        564
  89.2000        529
  89.6000        502
  90.0000        468
  90.4000        516
  90.8000        499
  91.2000        496
  91.6000        457
  92.0000        481
  92.4000        568
  92.8000        460
  93.2000        519
  93.6000        528
  94.0000        537
  94.4000        546
  94.8000        491
  95.2000        531
  95.6000        498
  96.0000        525
  96.4000        495
  96.8000        513
  97.2000        516
  97.6000        537
  98.0000        543
  98.4000        567
  98.8000        660
  99.2000        784
  99.6000        773
 100.0000        604
 100.4000        537
 100.8000        521
 101.2000        476
 101.6000        523
 102.0000        522
 102.4000        548
 102.8000        466
 103.2000        548
 103.6000        503
 104.0000        498
 104.4000        532
 104.8000        510
 105.2000        502
 105.6000        488
 106.0000        527
 106.4000        478
 106.8000        495
 107.2000        506
 107.6000        573
 108.0000        538
 108.4000        518
 108.8000        521
 109.2000        481
 109.6000        480
 110.0000        510
 110.4000        484
 110.8000        488
 111.2000        543
 111.6000        513
 112.0000        494
 112.4000        452
 112.8000        481
 113.2000        513
 113.6000        449
 114.0000        478
 114.4000        534
 114.8000        480
 115.2000        534
 115.6000        494
 116.0000        484
 116.4000        500
 116.8000        510
 117.2000        479
 117.6000        504
 118.0000        506
 118.4000        534
 118.8000        515
 119.2000        511
 119.6000        518
 120.0000        481
 120.4000        517
 120.8000        469
 121.2000        483
 121.6000        533
[...]
  72.4000        318
  72.8000        326
  73.2000        321
  73.6000        327
  74.0000        350
  74.4000        338
  74.8000        388
  75.2000        385
  75.6000        368
  76.0000        385
  76.4000        441
  76.8000        455
  77.2000        446
  77.6000        402
  78.0000        383
  78.4000        346
  78.8000        342
  79.2000        335
  79.6000        325
  80.0000        323
  80.4000        374
  80.8000        349
  81.2000        342
  81.6000        378
  82.0000        361
  82.4000        364
  82.8000        350
  83.2000        349
  83.6000        325
  84.0000        364
  84.4000        327
  84.8000        355
  85.2000        335
  85.6000        342
  86.0000        386
  86.4000        368
  86.8000        368
  87.2000        317
  87.6000        357
  88.0000        342
  88.4000        356
  88.8000        345
  89.2000        362
  89.6000        365
  90.0000        387
  90.4000        382
  90.8000        365
  91.2000        357
  91.6000        349
  92.0000        400
  92.4000        414
  92.8000        393
  93.2000        355
  93.6000        371
  94.0000        395
  94.4000        369
  94.8000        339
  95.2000        360
  95.6000        409
  96.0000        392
  96.4000        428
  96.8000        378
  97.2000        359
  97.6000        422
  98.0000        452
  98.4000        530
  98.8000        651
  99.2000        683
  99.6000        583
 100.0000        489
 100.4000        472
 100.8000        424
 101.2000        364
 101.6000        409
 102.0000        361
 102.4000        351
 102.8000        363
 103.2000        399
 103.6000        393
 104.0000        395
 104.4000        405
 104.8000        356
 105.2000        362
 105.6000        347
 106.0000        350
 106.4000        387
 106.8000        360
 107.2000        409
 107.6000        404
 108.0000        368
 108.4000        405
 108.8000        396
 109.2000        403
 109.6000        383
 110.0000        431
 110.4000        431
 110.8000        380
 111.2000        408
 111.6000        425
 112.0000        392
 112.4000        389
 112.8000        363
 113.2000        410
 113.6000        412
 114.0000        423
 114.4000        396
 114.8000        417
 115.2000        430
 115.6000        413
 116.0000        426
 116.4000        390
 116.8000        411
 117.2000        394
 117.6000        428
 118.0000        419
 118.4000        417
 118.8000        451
 119.2000        418
 119.6000        424
 120.0000        393
 120.4000        424
 120.8000        359
 121.2000        405
 121.6000        409
 122.0000        480
 122.4000        481
 122.8000        532
 123.2000        542
 123.6000        504
 124.0000        512
 124.4000        459
 124.8000        425
 125.2000        393
 125.6000        414
 126.0000        432
 126.4000        420
 126.8000        439
 127.2000        470
 127.6000        418
 128.0000        455
 128.4000        404
 128.8000        449
 129.2000        407
 129.6000        416
 130.0000        445

; Data for range 53
_DRIVE = COUPLED
_STEPTIME = 0.2
_STEPSIZE = 0.1
_STEPMODE = C
_START = 40
_THETA = 20
_2THETA = 40
_KHI = 80
_PHI = 0
_X = 0
_Y = -25
_Z = 0
_DETECTOR = 1
; Detector type : Scintillation counter
_HV = 687
_GAIN = 80
_LLD = 0.69
_ULD = 1.866
_DETECTORSLIT = unkn
_AUX1 = 0
_AUX2 = 0
_AUX3 = 0
_TIMESTARTED = 1.029e+004
_TEMP_RATE = -1
_TEMP_DELAY = -1
_KV = 35
_MA = 40
_RANGE_WL = 1.78897
_3DPLANE = 0
_V4_ADDITIONALDETECTOR = 0
_V4_D8_DIBNUM = 1
_V4_DETECTORNAME = "Detector 1"
_V4_TTLDETECTOR = None
_V4_DETECTORTYPE = 1
_V4_DETECTORFLAGS = 524545
_V4_DETECTORHV = 687
_V4_DETECTORGAIN = 80
_V4_DETECTORLLD1 = 0.69
_V4_DETECTORWW1 = 1.176
_V4_DETECTORLLD2 = 0
_V4_DETECTORWW2 = 0
_V4_DETECTORPS = 0
_V4_DETECTORDT = 0
_V4_DETECTORPILEUPTIME = 0
_V4_COUNTERS_MASK = 1
_V4_DRIVES_MASK = 0
_V4_ENCODERS_MASK = 0
_2THETACOUNTS = 1
; 2THETA  Cnt1_D1
  40.0000        163
  40.4000        151
  40.8000        134
  41.2000        140
  41.6000        179
  42.0000        150
  42.4000        166
  42.8000        159
  43.2000        221
  43.6000        205
  44.0000        194
  44.4000        176
  44.8000        172
  45.2000        160
  45.6000        169
  46.0000        148
  46.4000        164
  46.8000        160
  47.2000        155
  47.6000        172
  48.0000        185
  48.4000        166
  48.8000        151
  49.2000        197
  49.6000        183
  50.0000        181
  50.4000        233
  50.8000        229
  51.2000        256
  51.6000        402
  52.0000        685
  52.4000        814
  52.8000        689
  53.2000        423
  53.6000        242
  54.0000        173
  54.4000        198
  54.8000        194
  55.2000        191
  55.6000        215
  56.0000        194
  56.4000        206
  56.8000        194
  57.2000        174
  57.6000        182
  58.0000        205
  58.4000        215
  58.8000        211
  59.2000        170
  59.6000        211
  60.0000        191
  60.4000        223
  60.8000        193
  61.2000        218
  61.6000        202
  62.0000        231
  62.4000        209
  62.8000        200
  63.2000        195
  63.6000        233
  64.0000        200
  64.4000        201
  64.8000        214
  65.2000        219
  65.6000        202
  66.0000        214
  66.4000        217
  66.8000        257
  67.2000        193
  67.6000        237
  68.0000        236
  68.4000        213
  68.8000        209
  69.2000        234
  69.6000        233
  70.0000        237
  70.4000        246
  70.8000        236
  71.2000        231
  71.6000        234
  72.0000        222
  72.4000        250
  72.8000        237
  73.2000        213
  73.6000        242
  74.0000        224
  74.4000        247
  74.8000        271
  75.2000        282
  75.6000        267
  76.0000        270
  76.4000        275
  76.8000        343
  77.2000        305
  77.6000        277
  78.0000        260
  78.4000        249
  78.8000        244
  79.2000        269
  79.6000        267
  80.0000        252
  80.4000        239
  80.8000        285
  81.2000        254
  81.6000        248
  82.0000        229
  82.4000        260
  82.8000        262
  83.2000        302
  83.6000        268
  84.0000        255
  84.4000        266
  84.8000        268
  85.2000        251
  85.6000        281
  86.0000        253
  86.4000        260
  86.8000        294
  87.2000        286
  87.6000        296
  88.0000        262
  88.4000        308
  88.8000        282
  89.2000        302
  89.6000        319
  90.0000        294
  90.4000        321
  90.8000        271
  91.2000        272
  91.6000        291
  92.0000        291
  92.4000        327
  92.8000        332
  93.2000        299
  93.6000        292
  94.0000        269
  94.4000        290
  94.8000        303
  95.2000        319
  95.6000        330
  96.0000        310
  96.4000        321
  96.8000        326
  97.2000        355
  97.6000        324
  98.0000        346
  98.4000        451
  98.8000        495
  99.2000        578
  99.6000        544
 100.0000        463
 100.4000        398
 100.8000        313
 101.2000        337
 101.6000        328
 102.0000        336
 102.4000        371
 102.8000        344
 103.2000        335
 103.6000        343
 104.0000        328
 104.4000        314
 104.8000        334
 105.2000        347
 105.6000        380
 106.0000        332
 106.4000        357
 106.8000        339
 107.2000        328
 107.6000        334
 108.0000        394
 108.4000        340
 108.8000        358
 109.2000        373
 109.6000        332
 110.0000        366
 110.4000        355
 110.8000        337
 111.2000        333
 111.6000        405
 112.0000        373
 112.4000        353
 112.8000        381
 113.2000        408
 113.6000        377
 114.0000        374
 114.4000        375
 114.8000        366
 115.2000        373
 115.6000        383
 116.0000        358
 116.4000        371
 116.8000        390
 117.2000        429
 117.6000        390
 118.0000        422
 118.4000        372
 118.8000        388
 119.2000        412
 119.6000        371
 120.0000        420
 120.4000        394
 120.8000        414
 121.2000        426
 121.6000        412
 122.0000        412
 122.4000        437
 122.8000        499
 123.2000        530
 123.6000        480
 124.0000        498
 124.4000        463
 124.8000        413
 125.2000        408
 125.6000        421
 126.0000        425
 126.4000        377
 126.8000        418
 127.2000        413
 127.6000        407
 128.0000        415
 128.4000        405
 128.8000        406
 129.2000        403
 129.6000        390
 130.0000        443