File: exp_dat/old/exp_2013_11_11/12pct_20L.uxd
; (content of file C:\DIFFDAT1\GIFT\MDL\Seawoong Lee\20131104_MV8\equal_area_maxkhi080_n8_2th40_130_x25y25_20L.raw)
_FILEVERSION = 3
_SAMPLE =
_+SAMPLE =
_SITE = Korea
_USER = Admin
_GONIOMETER_CODE = 20
; Goniometer : D8 theta/2theta, stage : Unknown
_SAMPLE_CHANGER_CODE = 0
_ATTACHMENTS_CODE = 0
_GONIOMETER_RADIUS = 300
_FIXED_DIVSLIT = 1
_FIXED_SAMPLESLIT = 0
_SOLLER_SLITS = 2
_FIXED_DETSLIT = 0.1
_MONOCHROMATOR = 0
; Incident beam monochromator : None
_SOLLER_SLITS_2 = 2
_THIN_FILM = N
_BETA_FILTER = Y
_FIXED_ANTISLIT = 0.6
_ANALYZER_CODE = 0
; Received beam analyzer : None
_DATEMEASURED = "06-Nov-2013 19:06:35"
_WL_UNIT = A
_WL1 = 1.78897
_WL2 = 1.79285
_WL3 = 1.62079
_WLRATIO = 0.5
_ANODE = Co
_V4_INF_CREATOR = XRDWizard
_V4_INF_CREATOR_VERSION = V2.9.0.22
_V4_INF_WIZARD_VERSION = V2.9.0.22
_V4_INF_WIZARD_ADDINS = V2.9.0.22
_V4_INF_WIZARD_DOCTYPE = XRD
_V4_INF_OSUSER = Postech
_V4_INF_USER = Admin
_V4_INF_SITE = Korea

; Data for range 1
_DRIVE = COUPLED
_STEPTIME = 0.2
_STEPSIZE = 0.1
_STEPMODE = C
_START = 40
_THETA = 20
_2THETA = 40
_KHI = 0
_PHI = 0
_X = 25
_Y = 25
_Z = 0
_DETECTOR = 1
; Detector type : Scintillation counter
_HV = 687
_GAIN = 80
_LLD = 0.69
_ULD = 1.866
_DETECTORSLIT = unkn
_AUX1 = 0
_AUX2 = 0
_AUX3 = 0
_TIMESTARTED = 28
_TEMP_RATE = -1
_TEMP_DELAY = -1
_KV = 35
_MA = 40
_RANGE_WL = 1.78897
_3DPLANE = 0
_V4_ADDITIONALDETECTOR = 0
_V4_D8_DIBNUM = 1
_V4_DETECTORNAME = "Detector 1"
_V4_TTLDETECTOR = None
_V4_DETECTORTYPE = 1
_V4_DETECTORFLAGS = 524545
_V4_DETECTORHV = 687
_V4_DETECTORGAIN = 80
_V4_DETECTORLLD1 = 0.69
_V4_DETECTORWW1 = 1.176
_V4_DETECTORLLD2 = 0
_V4_DETECTORWW2 = 0
_V4_DETECTORPS = 0
_V4_DETECTORDT = 0
_V4_DETECTORPILEUPTIME = 0
_V4_COUNTERS_MASK = 1
_V4_DRIVES_MASK = 0
_V4_ENCODERS_MASK = 0
_2THETACOUNTS = 1
; 2THETA  Cnt1_D1
  40.0000        538
  40.4000        551
  40.8000        532
  41.2000        542
  41.6000        540
  42.0000        549
  42.4000        537
  42.8000        506
  43.2000        515
  43.6000        538
  44.0000        504
  44.4000        506
  44.8000        497
  45.2000        505
  45.6000        507
  46.0000        516
  46.4000        492
  46.8000        523
  47.2000        528
  47.6000        527
  48.0000        503
  48.4000        518
  48.8000        490
  49.2000        512
  49.6000        534
  50.0000        532
  50.4000        498
  50.8000        554
  51.2000        627
  51.6000        774
  52.0000       1391
  52.4000       1328
  52.8000        599
  53.2000        518
  53.6000        520
  54.0000        512
  54.4000        513
  54.8000        502
  55.2000        533
  55.6000        539
  56.0000        512
  56.4000        495
  56.8000        520
  57.2000        500
  57.6000        495
  58.0000        508
  58.4000        519
  58.8000        501
  59.2000        542
  59.6000        539
  60.0000        525
  60.4000        559
  60.8000        501
  61.2000        529
  61.6000        500
  62.0000        453
  62.4000        516
  62.8000        510
  63.2000        501
  63.6000        545
  64.0000        483
  64.4000        516
  64.8000        491
  65.2000        514
  65.6000        516
  66.0000        518
  66.4000        514
  66.8000        481
  67.2000        472
  67.6000        489
  68.0000        490
  68.4000        514
  68.8000        497
  69.2000        521
  69.6000        516
  70.0000        518
  70.4000        520
  70.8000        506
  71.2000        514
  71.6000        497
  72.0000        528
  72.4000        524
  72.8000        467
  73.2000        488
  73.6000        491
  74.0000        497
  74.4000        534
  74.8000        527
  75.2000        546
  75.6000        515
  76.0000        546
  76.4000        703
  76.8000       1009
  77.2000        887
  77.6000        581
  78.0000        528
  78.4000        520
  78.8000        487
  79.2000        541
  79.6000        505
  80.0000        529
  80.4000        515
  80.8000        535
  81.2000        507
  81.6000        508
  82.0000        502
  82.4000        537
  82.8000        512
  83.2000        484
  83.6000        506
  84.0000        505
  84.4000        491
  84.8000        502
  85.2000        536
  85.6000        500
  86.0000        517
  86.4000        516
  86.8000        508
  87.2000        532
  87.6000        487
  88.0000        481
  88.4000        494
  88.8000        583
  89.2000        601
  89.6000        623
  90.0000        579
  90.4000        553
  90.8000        552
  91.2000        515
  91.6000        530
  92.0000        525
  92.4000        514
  92.8000        493
  93.2000        483
  93.6000        473
  94.0000        503
  94.4000        536
  94.8000        517
  95.2000        536
  95.6000        529
  96.0000        500
  96.4000        499
  96.8000        500
  97.2000        517
  97.6000        537
  98.0000        579
  98.4000        572
  98.8000        912
  99.2000       1452
  99.6000       1321
 100.0000        768
 100.4000        571
 100.8000        495
 101.2000        507
 101.6000        527
 102.0000        494
 102.4000        540
 102.8000        527
 103.2000        506
 103.6000        523
 104.0000        505
 104.4000        474
 104.8000        515
 105.2000        514
 105.6000        490
 106.0000        469
 106.4000        506
 106.8000        549
 107.2000        531
 107.6000        508
 108.0000        516
 108.4000        482
 108.8000        553
 109.2000        512
 109.6000        550
 110.0000        513
 110.4000        547
 110.8000        560
 111.2000        522
 111.6000        536
 112.0000        564
 112.4000        512
 112.8000        482
 113.2000        524
 113.6000        511
 114.0000        507
 114.4000        505
 114.8000        528
 115.2000        549
 115.6000        538
 116.0000        514
 116.4000        491
 116.8000        504
 117.2000        513
 117.6000        513
 118.0000        512
 118.4000        470
 118.8000        527
 119.2000        526
 119.6000        536
 120.0000        522
 120.4000        532
 120.8000        519
 121.2000        501
 121.6000        480
 122.0000        548
 122.4000        510
 122.8000        561
 123.2000        593
 123.6000        616
 124.0000        566
 124.4000        578
 124.8000        505
 125.2000        519
 125.6000        526
 126.0000        509
 126.4000        488
 126.8000        528
 127.2000        485
 127.6000        517
 128.0000        556
 128.4000        525
 128.8000        506
 129.2000        515
 129.6000        483
 130.0000        487

; Data for range 2
_DRIVE = COUPLED
_STEPTIME = 0.2
_STEPSIZE = 0.1
_STEPMODE = C
_START = 40
_THETA = 20
_2THETA = 40
_KHI = 10.5
_PHI = 60
_X = 25
_Y = 25
_Z = 0
_DETECTOR = 1
; Detector type : Scintillation counter
_HV = 687
_GAIN = 80
_LLD = 0.69
_ULD = 1.866
_DETECTORSLIT = unkn
_AUX1 = 0
_AUX2 = 0
_AUX3 = 0
_TIMESTARTED = 225
_TEMP_RATE = -1
_TEMP_DELAY = -1
_KV = 35
_MA = 40
_RANGE_WL = 1.78897
_3DPLANE = 0
_V4_ADDITIONALDETECTOR = 0
_V4_D8_DIBNUM = 1
_V4_DETECTORNAME = "Detector 1"
_V4_TTLDETECTOR = None
_V4_DETECTORTYPE = 1
_V4_DETECTORFLAGS = 524545
_V4_DETECTORHV = 687
_V4_DETECTORGAIN = 80
_V4_DETECTORLLD1 = 0.69
_V4_DETECTORWW1 = 1.176
_V4_DETECTORLLD2 = 0
_V4_DETECTORWW2 = 0
_V4_DETECTORPS = 0
_V4_DETECTORDT = 0
_V4_DETECTORPILEUPTIME = 0
_V4_COUNTERS_MASK = 1
_V4_DRIVES_MASK = 0
_V4_ENCODERS_MASK = 0
_2THETACOUNTS = 1
; 2THETA  Cnt1_D1
  40.0000        545
  40.4000        511
  40.8000        564
  41.2000        529
  41.6000        547
  42.0000        507
  42.4000        582
  42.8000        551
  43.2000        536
  43.6000        526
  44.0000        529
  44.4000        533
  44.8000        558
  45.2000        517
  45.6000        514
  46.0000        550
  46.4000        519
  46.8000        482
  47.2000        526
  47.6000        522
  48.0000        538
  48.4000        537
  48.8000        527
  49.2000        522
  49.6000        500
  50.0000        505
  50.4000        519
  50.8000        573
  51.2000        573
  51.6000        744
  52.0000       1312
  52.4000       1264
  52.8000        607
  53.2000        529
  53.6000        559
  54.0000        513
  54.4000        523
  54.8000        534
  55.2000        563
  55.6000        541
  56.0000        493
  56.4000        492
  56.8000        474
  57.2000        537
  57.6000        537
  58.0000        545
  58.4000        518
  58.8000        559
  59.2000        545
  59.6000        541
  60.0000        556
  60.4000        532
  60.8000        503
  61.2000        500
  61.6000        564
  62.0000        485
  62.4000        525
  62.8000        514
  63.2000        483
  63.6000        529
  64.0000        519
  64.4000        518
  64.8000        544
  65.2000        521
  65.6000        537
  66.0000        547
  66.4000        486
  66.8000        530
  67.2000        507
  67.6000        518
  68.0000        488
  68.4000        461
  68.8000        481
  69.2000        508
  69.6000        523
  70.0000        537
  70.4000        506
  70.8000        463
  71.2000        503
  71.6000        517
  72.0000        512
  72.4000        517
  72.8000        542
  73.2000        519
  73.6000        514
  74.0000        547
  74.4000        521
  74.8000        494
  75.2000        519
  75.6000        532
  76.0000        527
  76.4000        610
  76.8000        751
  77.2000        771
  77.6000        627
  78.0000        526
  78.4000        488
  78.8000        561
  79.2000        533
  79.6000        511
  80.0000        498
  80.4000        524
  80.8000        539
  81.2000        507
  81.6000        509
  82.0000        468
  82.4000        531
  82.8000        532
  83.2000        537
  83.6000        497
  84.0000        527
  84.4000        481
  84.8000        514
  85.2000        513
  85.6000        541
  86.0000        502
  86.4000        522
  86.8000        469
  87.2000        517
  87.6000        516
  88.0000        535
  88.4000        514
  88.8000        534
  89.2000        541
  89.6000        561
  90.0000        510
  90.4000        577
  90.8000        527
  91.2000        518
  91.6000        522
  92.0000        478
  92.4000        508
  92.8000        503
  93.2000        491
  93.6000        531
  94.0000        515
  94.4000        521
  94.8000        480
  95.2000        475
  95.6000        500
  96.0000        529
  96.4000        498
  96.8000        545
  97.2000        544
  97.6000        524
  98.0000        564
  98.4000        555
  98.8000        769
  99.2000       1027
  99.6000        944
 100.0000        654
 100.4000        543
 100.8000        518
 101.2000        509
 101.6000        507
 102.0000        553
 102.4000        508
 102.8000        498
 103.2000        563
 103.6000        527
 104.0000        520
 104.4000        503
 104.8000        533
 105.2000        505
 105.6000        575
 106.0000        513
 106.4000        506
 106.8000        470
 107.2000        558
 107.6000        488
 108.0000        519
 108.4000        493
 108.8000        494
 109.2000        519
 109.6000        521
 110.0000        498
 110.4000        526
 110.8000        529
 111.2000        605
 111.6000        530
 112.0000        499
 112.4000        537
 112.8000        477
 113.2000        545
 113.6000        489
 114.0000        478
 114.4000        467
 114.8000        506
 115.2000        504
 115.6000        534
 116.0000        540
 116.4000        551
 116.8000        513
 117.2000        494
 117.6000        532
 118.0000        501
 118.4000        548
 118.8000        535
 119.2000        493
 119.6000        487
 120.0000        536
 120.4000        490
 120.8000        497
 121.2000        491
 121.6000        488
 122.0000        548
 122.4000        483
 122.8000        533
 123.2000        596
 123.6000        595
 124.0000        534
 124.4000        501
 124.8000        534
 125.2000        516
 125.6000        539
 126.0000        507
 126.4000        526
 126.8000        470
 127.2000        521
 127.6000        510
 128.0000        490
 128.4000        524
 128.8000        501
 129.2000        522
 129.6000        514
 130.0000        513

; Data for range 3
_DRIVE = COUPLED
_STEPTIME = 0.2
_STEPSIZE = 0.1
_STEPMODE = C
_START = 40
_THETA = 20
_2THETA = 40
_KHI = 18.3
_PHI = 90
_X = 25
_Y = 25
_Z = 0
_DETECTOR = 1
; Detector type : Scintillation counter
_HV = 687
_GAIN = 80
_LLD = 0.69
_ULD = 1.866
_DETECTORSLIT = unkn
_AUX1 = 0
_AUX2 = 0
_AUX3 = 0
_TIMESTARTED = 422
_TEMP_RATE = -1
_TEMP_DELAY = -1
_KV = 35
_MA = 40
_RANGE_WL = 1.78897
_3DPLANE = 0
_V4_ADDITIONALDETECTOR = 0
_V4_D8_DIBNUM = 1
_V4_DETECTORNAME = "Detector 1"
_V4_TTLDETECTOR = None
_V4_DETECTORTYPE = 1
_V4_DETECTORFLAGS = 524545
_V4_DETECTORHV = 687
_V4_DETECTORGAIN = 80
_V4_DETECTORLLD1 = 0.69
_V4_DETECTORWW1 = 1.176
_V4_DETECTORLLD2 = 0
_V4_DETECTORWW2 = 0
_V4_DETECTORPS = 0
_V4_DETECTORDT = 0
_V4_DETECTORPILEUPTIME = 0
_V4_COUNTERS_MASK = 1
_V4_DRIVES_MASK = 0
_V4_ENCODERS_MASK = 0
_2THETACOUNTS = 1
; 2THETA  Cnt1_D1
  40.0000        548
  40.4000        513
  40.8000        563
  41.2000        501
  41.6000        546
  42.0000        524
  42.4000        554
  42.8000        550
  43.2000        567
  43.6000        511
  44.0000        502
  44.4000        512
  44.8000        516
  45.2000        532
  45.6000        542
  46.0000        551
  46.4000        572
  46.8000        548
  47.2000        553
  47.6000        526
  48.0000        511
  48.4000        537
  48.8000        490
  49.2000        535
  49.6000        549
  50.0000        534
  50.4000        616
  50.8000        749
  51.2000        831
  51.6000       1127
  52.0000       1972
  52.4000       1787
  52.8000        656
  53.2000        565
  53.6000        560
  54.0000        536
  54.4000        529
  54.8000        512
  55.2000        525
  55.6000        529
  56.0000        509
  56.4000        574
  56.8000        521
  57.2000        523
  57.6000        542
  58.0000        518
  58.4000        495
  58.8000        527
  59.2000        577
  59.6000        597
  60.0000        586
  60.4000        563
  60.8000        532
  61.2000        520
  61.6000        452
  62.0000        508
  62.4000        531
  62.8000        491
  63.2000        537
  63.6000        546
  64.0000        498
  64.4000        502
  64.8000        529
  65.2000        519
  65.6000        542
  66.0000        513
  66.4000        488
  66.8000        492
  67.2000        506
  67.6000        490
  68.0000        480
  68.4000        531
  68.8000        531
  69.2000        525
  69.6000        486
  70.0000        472
  70.4000        525
  70.8000        521
  71.2000        501
  71.6000        502
  72.0000        488
  72.4000        533
  72.8000        507
  73.2000        518
  73.6000        504
  74.0000        522
  74.4000        559
  74.8000        531
  75.2000        513
  75.6000        525
  76.0000        523
  76.4000        563
  76.8000        626
  77.2000        570
  77.6000        555
  78.0000        538
  78.4000        548
  78.8000        542
  79.2000        558
  79.6000        486
  80.0000        533
  80.4000        493
  80.8000        478
  81.2000        519
  81.6000        538
  82.0000        539
  82.4000        549
  82.8000        525
  83.2000        547
  83.6000        506
  84.0000        508
  84.4000        484
  84.8000        526
  85.2000        507
  85.6000        500
  86.0000        501
  86.4000        518
  86.8000        518
  87.2000        547
  87.6000        544
  88.0000        504
  88.4000        471
  88.8000        520
  89.2000        544
  89.6000        533
  90.0000        540
  90.4000        522
  90.8000        514
  91.2000        506
  91.6000        529
  92.0000        513
  92.4000        566
  92.8000        516
  93.2000        499
  93.6000        502
  94.0000        523
  94.4000        475
  94.8000        527
  95.2000        503
  95.6000        529
  96.0000        515
  96.4000        499
  96.8000        437
  97.2000        530
  97.6000        496
  98.0000        509
  98.4000        538
  98.8000        660
  99.2000        926
  99.6000        920
 100.0000        630
 100.4000        535
 100.8000        493
 101.2000        508
 101.6000        525
 102.0000        527
 102.4000        531
 102.8000        517
 103.2000        508
 103.6000        497
 104.0000        495
 104.4000        533
 104.8000        510
 105.2000        504
 105.6000        494
 106.0000        507
 106.4000        533
 106.8000        549
 107.2000        509
 107.6000        541
 108.0000        533
 108.4000        547
 108.8000        490
 109.2000        513
 109.6000        500
 110.0000        479
 110.4000        529
 110.8000        524
 111.2000        539
 111.6000        545
 112.0000        533
 112.4000        540
 112.8000        508
 113.2000        509
 113.6000        519
 114.0000        517
 114.4000        519
 114.8000        526
 115.2000        491
 115.6000        552
 116.0000        516
 116.4000        495
 116.8000        524
 117.2000        502
 117.6000        519
 118.0000        519
 118.4000        530
 118.8000        511
 119.2000        528
 119.6000        532
 120.0000        515
 120.4000        472
 120.8000        498
 121.2000        508
 121.6000        507
[...]
  72.4000        301
  72.8000        320
  73.2000        301
  73.6000        315
  74.0000        306
  74.4000        308
  74.8000        334
  75.2000        337
  75.6000        342
  76.0000        315
  76.4000        329
  76.8000        379
  77.2000        388
  77.6000        387
  78.0000        348
  78.4000        321
  78.8000        322
  79.2000        301
  79.6000        281
  80.0000        337
  80.4000        317
  80.8000        348
  81.2000        319
  81.6000        348
  82.0000        318
  82.4000        347
  82.8000        316
  83.2000        320
  83.6000        323
  84.0000        320
  84.4000        322
  84.8000        302
  85.2000        308
  85.6000        299
  86.0000        368
  86.4000        315
  86.8000        337
  87.2000        309
  87.6000        308
  88.0000        341
  88.4000        331
  88.8000        326
  89.2000        351
  89.6000        366
  90.0000        335
  90.4000        356
  90.8000        334
  91.2000        338
  91.6000        344
  92.0000        345
  92.4000        379
  92.8000        364
  93.2000        316
  93.6000        329
  94.0000        329
  94.4000        325
  94.8000        347
  95.2000        360
  95.6000        345
  96.0000        337
  96.4000        346
  96.8000        343
  97.2000        333
  97.6000        359
  98.0000        401
  98.4000        458
  98.8000        568
  99.2000        572
  99.6000        534
 100.0000        439
 100.4000        389
 100.8000        373
 101.2000        326
 101.6000        377
 102.0000        365
 102.4000        333
 102.8000        324
 103.2000        352
 103.6000        313
 104.0000        364
 104.4000        353
 104.8000        304
 105.2000        337
 105.6000        413
 106.0000        371
 106.4000        349
 106.8000        330
 107.2000        329
 107.6000        369
 108.0000        366
 108.4000        355
 108.8000        327
 109.2000        345
 109.6000        347
 110.0000        383
 110.4000        390
 110.8000        379
 111.2000        388
 111.6000        405
 112.0000        381
 112.4000        387
 112.8000        332
 113.2000        342
 113.6000        361
 114.0000        360
 114.4000        372
 114.8000        408
 115.2000        418
 115.6000        366
 116.0000        378
 116.4000        356
 116.8000        359
 117.2000        375
 117.6000        421
 118.0000        418
 118.4000        420
 118.8000        345
 119.2000        381
 119.6000        398
 120.0000        354
 120.4000        403
 120.8000        388
 121.2000        368
 121.6000        386
 122.0000        412
 122.4000        413
 122.8000        480
 123.2000        488
 123.6000        454
 124.0000        410
 124.4000        425
 124.8000        369
 125.2000        393
 125.6000        399
 126.0000        393
 126.4000        414
 126.8000        393
 127.2000        346
 127.6000        398
 128.0000        378
 128.4000        365
 128.8000        393
 129.2000        386
 129.6000        413
 130.0000        411

; Data for range 53
_DRIVE = COUPLED
_STEPTIME = 0.2
_STEPSIZE = 0.1
_STEPMODE = C
_START = 40
_THETA = 20
_2THETA = 40
_KHI = 80
_PHI = 0
_X = 25
_Y = 25
_Z = 0
_DETECTOR = 1
; Detector type : Scintillation counter
_HV = 687
_GAIN = 80
_LLD = 0.69
_ULD = 1.866
_DETECTORSLIT = unkn
_AUX1 = 0
_AUX2 = 0
_AUX3 = 0
_TIMESTARTED = 1.03e+004
_TEMP_RATE = -1
_TEMP_DELAY = -1
_KV = 35
_MA = 40
_RANGE_WL = 1.78897
_3DPLANE = 0
_V4_ADDITIONALDETECTOR = 0
_V4_D8_DIBNUM = 1
_V4_DETECTORNAME = "Detector 1"
_V4_TTLDETECTOR = None
_V4_DETECTORTYPE = 1
_V4_DETECTORFLAGS = 524545
_V4_DETECTORHV = 687
_V4_DETECTORGAIN = 80
_V4_DETECTORLLD1 = 0.69
_V4_DETECTORWW1 = 1.176
_V4_DETECTORLLD2 = 0
_V4_DETECTORWW2 = 0
_V4_DETECTORPS = 0
_V4_DETECTORDT = 0
_V4_DETECTORPILEUPTIME = 0
_V4_COUNTERS_MASK = 1
_V4_DRIVES_MASK = 0
_V4_ENCODERS_MASK = 0
_2THETACOUNTS = 1
; 2THETA  Cnt1_D1
  40.0000        180
  40.4000        171
  40.8000        175
  41.2000        176
  41.6000        178
  42.0000        183
  42.4000        197
  42.8000        262
  43.2000        312
  43.6000        297
  44.0000        236
  44.4000        189
  44.8000        199
  45.2000        198
  45.6000        171
  46.0000        168
  46.4000        209
  46.8000        198
  47.2000        225
  47.6000        212
  48.0000        223
  48.4000        221
  48.8000        199
  49.2000        202
  49.6000        229
  50.0000        276
  50.4000        295
  50.8000        342
  51.2000        473
  51.6000        710
  52.0000       1009
  52.4000       1021
  52.8000        708
  53.2000        412
  53.6000        251
  54.0000        238
  54.4000        225
  54.8000        224
  55.2000        240
  55.6000        255
  56.0000        248
  56.4000        246
  56.8000        244
  57.2000        236
  57.6000        234
  58.0000        245
  58.4000        246
  58.8000        236
  59.2000        240
  59.6000        250
  60.0000        269
  60.4000        237
  60.8000        220
  61.2000        239
  61.6000        229
  62.0000        243
  62.4000        246
  62.8000        217
  63.2000        217
  63.6000        260
  64.0000        253
  64.4000        253
  64.8000        238
  65.2000        220
  65.6000        225
  66.0000        271
  66.4000        249
  66.8000        267
  67.2000        274
  67.6000        239
  68.0000        222
  68.4000        264
  68.8000        252
  69.2000        246
  69.6000        234
  70.0000        276
  70.4000        247
  70.8000        267
  71.2000        233
  71.6000        276
  72.0000        267
  72.4000        268
  72.8000        293
  73.2000        277
  73.6000        278
  74.0000        259
  74.4000        259
  74.8000        288
  75.2000        292
  75.6000        267
  76.0000        289
  76.4000        271
  76.8000        320
  77.2000        361
  77.6000        282
  78.0000        285
  78.4000        305
  78.8000        272
  79.2000        288
  79.6000        275
  80.0000        265
  80.4000        308
  80.8000        292
  81.2000        298
  81.6000        321
  82.0000        297
  82.4000        303
  82.8000        294
  83.2000        292
  83.6000        305
  84.0000        298
  84.4000        290
  84.8000        305
  85.2000        296
  85.6000        336
  86.0000        310
  86.4000        316
  86.8000        311
  87.2000        288
  87.6000        277
  88.0000        303
  88.4000        289
  88.8000        331
  89.2000        337
  89.6000        329
  90.0000        327
  90.4000        320
  90.8000        324
  91.2000        331
  91.6000        311
  92.0000        341
  92.4000        309
  92.8000        351
  93.2000        347
  93.6000        340
  94.0000        341
  94.4000        332
  94.8000        356
  95.2000        325
  95.6000        348
  96.0000        324
  96.4000        326
  96.8000        367
  97.2000        356
  97.6000        371
  98.0000        397
  98.4000        486
  98.8000        558
  99.2000        577
  99.6000        604
 100.0000        486
 100.4000        416
 100.8000        407
 101.2000        358
 101.6000        370
 102.0000        325
 102.4000        349
 102.8000        387
 103.2000        398
 103.6000        338
 104.0000        371
 104.4000        377
 104.8000        400
 105.2000        352
 105.6000        362
 106.0000        369
 106.4000        387
 106.8000        418
 107.2000        374
 107.6000        406
 108.0000        371
 108.4000        424
 108.8000        379
 109.2000        376
 109.6000        375
 110.0000        353
 110.4000        429
 110.8000        416
 111.2000        400
 111.6000        408
 112.0000        419
 112.4000        417
 112.8000        441
 113.2000        419
 113.6000        373
 114.0000        394
 114.4000        387
 114.8000        376
 115.2000        358
 115.6000        384
 116.0000        396
 116.4000        377
 116.8000        397
 117.2000        409
 117.6000        426
 118.0000        435
 118.4000        401
 118.8000        401
 119.2000        417
 119.6000        456
 120.0000        380
 120.4000        401
 120.8000        391
 121.2000        415
 121.6000        400
 122.0000        420
 122.4000        494
 122.8000        558
 123.2000        607
 123.6000        562
 124.0000        473
 124.4000        431
 124.8000        400
 125.2000        426
 125.6000        397
 126.0000        406
 126.4000        417
 126.8000        421
 127.2000        424
 127.6000        399
 128.0000        407
 128.4000        427
 128.8000        419
 129.2000        404
 129.6000        439
 130.0000        426