File: exp_dat/old/exp_2013_11_11/13pct_20G.uxd
; (content of file C:\DIFFDAT1\GIFT\MDL\Seawoong Lee\20131104_MV8\equal_area_maxkhi080_n8_2th40_130_x25y25_20g.raw)
_FILEVERSION = 3
_SAMPLE =
_+SAMPLE =
_SITE = Korea
_USER = Admin
_GONIOMETER_CODE = 20
; Goniometer : D8 theta/2theta, stage : Unknown
_SAMPLE_CHANGER_CODE = 0
_ATTACHMENTS_CODE = 0
_GONIOMETER_RADIUS = 300
_FIXED_DIVSLIT = 1
_FIXED_SAMPLESLIT = 0
_SOLLER_SLITS = 2
_FIXED_DETSLIT = 0.1
_MONOCHROMATOR = 0
; Incident beam monochromator : None
_SOLLER_SLITS_2 = 2
_THIN_FILM = N
_BETA_FILTER = Y
_FIXED_ANTISLIT = 0.6
_ANALYZER_CODE = 0
; Received beam analyzer : None
_DATEMEASURED = "08-Nov-2013 18:43:09"
_WL_UNIT = A
_WL1 = 1.78897
_WL2 = 1.79285
_WL3 = 1.62079
_WLRATIO = 0.5
_ANODE = Co
_V4_INF_CREATOR = XRDWizard
_V4_INF_CREATOR_VERSION = V2.9.0.22
_V4_INF_WIZARD_VERSION = V2.9.0.22
_V4_INF_WIZARD_ADDINS = V2.9.0.22
_V4_INF_WIZARD_DOCTYPE = XRD
_V4_INF_OSUSER = Postech
_V4_INF_USER = Admin
_V4_INF_SITE = Korea

; Data for range 1
_DRIVE = COUPLED
_STEPTIME = 0.2
_STEPSIZE = 0.1
_STEPMODE = C
_START = 40
_THETA = 20
_2THETA = 40
_KHI = 0
_PHI = 0
_X = 25
_Y = 25
_Z = 0
_DETECTOR = 1
; Detector type : Scintillation counter
_HV = 687
_GAIN = 80
_LLD = 0.69
_ULD = 1.866
_DETECTORSLIT = unkn
_AUX1 = 0
_AUX2 = 0
_AUX3 = 0
_TIMESTARTED = 28
_TEMP_RATE = -1
_TEMP_DELAY = -1
_KV = 35
_MA = 40
_RANGE_WL = 1.78897
_3DPLANE = 0
_V4_ADDITIONALDETECTOR = 0
_V4_D8_DIBNUM = 1
_V4_DETECTORNAME = "Detector 1"
_V4_TTLDETECTOR = None
_V4_DETECTORTYPE = 1
_V4_DETECTORFLAGS = 524545
_V4_DETECTORHV = 687
_V4_DETECTORGAIN = 80
_V4_DETECTORLLD1 = 0.69
_V4_DETECTORWW1 = 1.176
_V4_DETECTORLLD2 = 0
_V4_DETECTORWW2 = 0
_V4_DETECTORPS = 0
_V4_DETECTORDT = 0
_V4_DETECTORPILEUPTIME = 0
_V4_COUNTERS_MASK = 1
_V4_DRIVES_MASK = 0
_V4_ENCODERS_MASK = 0
_2THETACOUNTS = 1
; 2THETA  Cnt1_D1
  40.0000        533
  40.4000        524
  40.8000        537
  41.2000        498
  41.6000        538
  42.0000        488
  42.4000        494
  42.8000        497
  43.2000        525
  43.6000        515
  44.0000        512
  44.4000        522
  44.8000        536
  45.2000        485
  45.6000        504
  46.0000        498
  46.4000        521
  46.8000        536
  47.2000        535
  47.6000        489
  48.0000        566
  48.4000        514
  48.8000        541
  49.2000        502
  49.6000        507
  50.0000        504
  50.4000        539
  50.8000        538
  51.2000        529
  51.6000        755
  52.0000       1109
  52.4000       1057
  52.8000        662
  53.2000        543
  53.6000        561
  54.0000        501
  54.4000        518
  54.8000        497
  55.2000        510
  55.6000        509
  56.0000        530
  56.4000        531
  56.8000        461
  57.2000        514
  57.6000        539
  58.0000        503
  58.4000        502
  58.8000        542
  59.2000        555
  59.6000        511
  60.0000        501
  60.4000        501
  60.8000        496
  61.2000        526
  61.6000        525
  62.0000        563
  62.4000        492
  62.8000        542
  63.2000        513
  63.6000        495
  64.0000        477
  64.4000        514
  64.8000        539
  65.2000        471
  65.6000        555
  66.0000        477
  66.4000        513
  66.8000        490
  67.2000        489
  67.6000        463
  68.0000        540
  68.4000        531
  68.8000        506
  69.2000        508
  69.6000        515
  70.0000        504
  70.4000        493
  70.8000        464
  71.2000        517
  71.6000        497
  72.0000        522
  72.4000        515
  72.8000        509
  73.2000        520
  73.6000        494
  74.0000        500
  74.4000        501
  74.8000        480
  75.2000        522
  75.6000        538
  76.0000        660
  76.4000       1066
  76.8000       1267
  77.2000       1000
  77.6000        626
  78.0000        562
  78.4000        469
  78.8000        530
  79.2000        506
  79.6000        486
  80.0000        483
  80.4000        538
  80.8000        489
  81.2000        526
  81.6000        517
  82.0000        538
  82.4000        534
  82.8000        503
  83.2000        495
  83.6000        556
  84.0000        507
  84.4000        481
  84.8000        515
  85.2000        512
  85.6000        520
  86.0000        524
  86.4000        524
  86.8000        528
  87.2000        512
  87.6000        527
  88.0000        504
  88.4000        506
  88.8000        502
  89.2000        493
  89.6000        552
  90.0000        465
  90.4000        527
  90.8000        521
  91.2000        527
  91.6000        547
  92.0000        474
  92.4000        525
  92.8000        457
  93.2000        480
  93.6000        510
  94.0000        504
  94.4000        553
  94.8000        501
  95.2000        475
  95.6000        482
  96.0000        521
  96.4000        510
  96.8000        493
  97.2000        513
  97.6000        532
  98.0000        570
  98.4000        684
  98.8000       1204
  99.2000       1711
  99.6000       1384
 100.0000        760
 100.4000        587
 100.8000        550
 101.2000        538
 101.6000        550
 102.0000        509
 102.4000        542
 102.8000        527
 103.2000        545
 103.6000        528
 104.0000        485
 104.4000        516
 104.8000        530
 105.2000        497
 105.6000        496
 106.0000        503
 106.4000        515
 106.8000        526
 107.2000        488
 107.6000        547
 108.0000        513
 108.4000        531
 108.8000        529
 109.2000        554
 109.6000        499
 110.0000        497
 110.4000        465
 110.8000        535
 111.2000        451
 111.6000        486
 112.0000        502
 112.4000        471
 112.8000        475
 113.2000        503
 113.6000        501
 114.0000        495
 114.4000        514
 114.8000        497
 115.2000        488
 115.6000        489
 116.0000        551
 116.4000        469
 116.8000        501
 117.2000        543
 117.6000        474
 118.0000        556
 118.4000        562
 118.8000        486
 119.2000        520
 119.6000        505
 120.0000        539
 120.4000        501
 120.8000        537
 121.2000        492
 121.6000        501
 122.0000        483
 122.4000        526
 122.8000        527
 123.2000        575
 123.6000        543
 124.0000        503
 124.4000        549
 124.8000        512
 125.2000        549
 125.6000        476
 126.0000        500
 126.4000        470
 126.8000        482
 127.2000        500
 127.6000        488
 128.0000        482
 128.4000        513
 128.8000        534
 129.2000        502
 129.6000        515
 130.0000        511

; Data for range 2
_DRIVE = COUPLED
_STEPTIME = 0.2
_STEPSIZE = 0.1
_STEPMODE = C
_START = 40
_THETA = 20
_2THETA = 40
_KHI = 10.5
_PHI = 60
_X = 25
_Y = 25
_Z = 0
_DETECTOR = 1
; Detector type : Scintillation counter
_HV = 687
_GAIN = 80
_LLD = 0.69
_ULD = 1.866
_DETECTORSLIT = unkn
_AUX1 = 0
_AUX2 = 0
_AUX3 = 0
_TIMESTARTED = 225
_TEMP_RATE = -1
_TEMP_DELAY = -1
_KV = 35
_MA = 40
_RANGE_WL = 1.78897
_3DPLANE = 0
_V4_ADDITIONALDETECTOR = 0
_V4_D8_DIBNUM = 1
_V4_DETECTORNAME = "Detector 1"
_V4_TTLDETECTOR = None
_V4_DETECTORTYPE = 1
_V4_DETECTORFLAGS = 524545
_V4_DETECTORHV = 687
_V4_DETECTORGAIN = 80
_V4_DETECTORLLD1 = 0.69
_V4_DETECTORWW1 = 1.176
_V4_DETECTORLLD2 = 0
_V4_DETECTORWW2 = 0
_V4_DETECTORPS = 0
_V4_DETECTORDT = 0
_V4_DETECTORPILEUPTIME = 0
_V4_COUNTERS_MASK = 1
_V4_DRIVES_MASK = 0
_V4_ENCODERS_MASK = 0
_2THETACOUNTS = 1
; 2THETA  Cnt1_D1
  40.0000        520
  40.4000        530
  40.8000        512
  41.2000        554
  41.6000        497
  42.0000        503
  42.4000        470
  42.8000        547
  43.2000        514
  43.6000        539
  44.0000        542
  44.4000        562
  44.8000        547
  45.2000        553
  45.6000        562
  46.0000        532
  46.4000        537
  46.8000        512
  47.2000        546
  47.6000        488
  48.0000        535
  48.4000        578
  48.8000        535
  49.2000        505
  49.6000        571
  50.0000        528
  50.4000        512
  50.8000        526
  51.2000        581
  51.6000        906
  52.0000       1384
  52.4000       1266
  52.8000        659
  53.2000        527
  53.6000        518
  54.0000        496
  54.4000        564
  54.8000        535
  55.2000        515
  55.6000        514
  56.0000        531
  56.4000        516
  56.8000        498
  57.2000        516
  57.6000        570
  58.0000        569
  58.4000        512
  58.8000        529
  59.2000        516
  59.6000        483
  60.0000        545
  60.4000        514
  60.8000        519
  61.2000        542
  61.6000        513
  62.0000        563
  62.4000        496
  62.8000        516
  63.2000        541
  63.6000        492
  64.0000        576
  64.4000        512
  64.8000        500
  65.2000        529
  65.6000        518
  66.0000        499
  66.4000        506
  66.8000        490
  67.2000        549
  67.6000        509
  68.0000        526
  68.4000        497
  68.8000        524
  69.2000        568
  69.6000        486
  70.0000        517
  70.4000        488
  70.8000        492
  71.2000        529
  71.6000        466
  72.0000        496
  72.4000        540
  72.8000        489
  73.2000        560
  73.6000        534
  74.0000        472
  74.4000        504
  74.8000        497
  75.2000        521
  75.6000        513
  76.0000        553
  76.4000        651
  76.8000        711
  77.2000        687
  77.6000        556
  78.0000        524
  78.4000        518
  78.8000        483
  79.2000        504
  79.6000        503
  80.0000        497
  80.4000        525
  80.8000        520
  81.2000        503
  81.6000        505
  82.0000        537
  82.4000        527
  82.8000        513
  83.2000        486
  83.6000        488
  84.0000        510
  84.4000        531
  84.8000        508
  85.2000        510
  85.6000        503
  86.0000        543
  86.4000        530
  86.8000        525
  87.2000        468
  87.6000        489
  88.0000        492
  88.4000        497
  88.8000        518
  89.2000        501
  89.6000        542
  90.0000        475
  90.4000        503
  90.8000        548
  91.2000        533
  91.6000        522
  92.0000        478
  92.4000        486
  92.8000        519
  93.2000        505
  93.6000        518
  94.0000        509
  94.4000        472
  94.8000        499
  95.2000        527
  95.6000        522
  96.0000        544
  96.4000        528
  96.8000        524
  97.2000        522
  97.6000        552
  98.0000        565
  98.4000        588
  98.8000        807
  99.2000        977
  99.6000        861
 100.0000        664
 100.4000        499
 100.8000        528
 101.2000        479
 101.6000        519
 102.0000        500
 102.4000        512
 102.8000        518
 103.2000        500
 103.6000        496
 104.0000        508
 104.4000        517
 104.8000        507
 105.2000        497
 105.6000        522
 106.0000        526
 106.4000        519
 106.8000        507
 107.2000        548
 107.6000        518
 108.0000        468
 108.4000        506
 108.8000        515
 109.2000        471
 109.6000        492
 110.0000        538
 110.4000        481
 110.8000        504
 111.2000        504
 111.6000        548
 112.0000        505
 112.4000        521
 112.8000        475
 113.2000        492
 113.6000        483
 114.0000        512
 114.4000        485
 114.8000        507
 115.2000        504
 115.6000        554
 116.0000        471
 116.4000        520
 116.8000        496
 117.2000        491
 117.6000        512
 118.0000        479
 118.4000        508
 118.8000        479
 119.2000        526
 119.6000        511
 120.0000        502
 120.4000        508
 120.8000        542
 121.2000        493
 121.6000        527
 122.0000        477
 122.4000        543
 122.8000        532
 123.2000        562
 123.6000        563
 124.0000        573
 124.4000        535
 124.8000        524
 125.2000        508
 125.6000        486
 126.0000        460
 126.4000        540
 126.8000        523
 127.2000        505
 127.6000        510
 128.0000        524
 128.4000        527
 128.8000        523
 129.2000        545
 129.6000        484
 130.0000        480

; Data for range 3
_DRIVE = COUPLED
_STEPTIME = 0.2
_STEPSIZE = 0.1
_STEPMODE = C
_START = 40
_THETA = 20
_2THETA = 40
_KHI = 18.3
_PHI = 90
_X = 25
_Y = 25
_Z = 0
_DETECTOR = 1
; Detector type : Scintillation counter
_HV = 687
_GAIN = 80
_LLD = 0.69
_ULD = 1.866
_DETECTORSLIT = unkn
_AUX1 = 0
_AUX2 = 0
_AUX3 = 0
_TIMESTARTED = 422
_TEMP_RATE = -1
_TEMP_DELAY = -1
_KV = 35
_MA = 40
_RANGE_WL = 1.78897
_3DPLANE = 0
_V4_ADDITIONALDETECTOR = 0
_V4_D8_DIBNUM = 1
_V4_DETECTORNAME = "Detector 1"
_V4_TTLDETECTOR = None
_V4_DETECTORTYPE = 1
_V4_DETECTORFLAGS = 524545
_V4_DETECTORHV = 687
_V4_DETECTORGAIN = 80
_V4_DETECTORLLD1 = 0.69
_V4_DETECTORWW1 = 1.176
_V4_DETECTORLLD2 = 0
_V4_DETECTORWW2 = 0
_V4_DETECTORPS = 0
_V4_DETECTORDT = 0
_V4_DETECTORPILEUPTIME = 0
_V4_COUNTERS_MASK = 1
_V4_DRIVES_MASK = 0
_V4_ENCODERS_MASK = 0
_2THETACOUNTS = 1
; 2THETA  Cnt1_D1
  40.0000        512
  40.4000        530
  40.8000        537
  41.2000        521
  41.6000        561
  42.0000        569
  42.4000        529
  42.8000        587
  43.2000        544
  43.6000        517
  44.0000        538
  44.4000        556
  44.8000        498
  45.2000        480
  45.6000        545
  46.0000        545
  46.4000        526
  46.8000        588
  47.2000        539
  47.6000        557
  48.0000        537
  48.4000        505
  48.8000        500
  49.2000        504
  49.6000        498
  50.0000        520
  50.4000        536
  50.8000        580
  51.2000        638
  51.6000       1428
  52.0000       2532
  52.4000       2104
  52.8000        858
  53.2000        585
  53.6000        550
  54.0000        580
  54.4000        574
  54.8000        550
  55.2000        565
  55.6000        512
  56.0000        549
  56.4000        519
  56.8000        530
  57.2000        570
  57.6000        565
  58.0000        459
  58.4000        533
  58.8000        540
  59.2000        526
  59.6000        513
  60.0000        481
  60.4000        510
  60.8000        533
  61.2000        512
  61.6000        527
  62.0000        499
  62.4000        471
  62.8000        512
  63.2000        548
  63.6000        538
  64.0000        530
  64.4000        485
  64.8000        547
  65.2000        537
  65.6000        502
  66.0000        497
  66.4000        488
  66.8000        529
  67.2000        538
  67.6000        506
  68.0000        521
  68.4000        509
  68.8000        509
  69.2000        537
  69.6000        490
  70.0000        508
  70.4000        526
  70.8000        523
  71.2000        526
  71.6000        531
  72.0000        493
  72.4000        519
  72.8000        539
  73.2000        534
  73.6000        495
  74.0000        561
  74.4000        500
  74.8000        473
  75.2000        525
  75.6000        534
  76.0000        525
  76.4000        561
  76.8000        588
  77.2000        579
  77.6000        569
  78.0000        496
  78.4000        491
  78.8000        528
  79.2000        511
  79.6000        485
  80.0000        456
  80.4000        512
  80.8000        504
  81.2000        539
  81.6000        492
  82.0000        507
  82.4000        507
  82.8000        503
  83.2000        515
  83.6000        531
  84.0000        473
  84.4000        512
  84.8000        509
  85.2000        518
  85.6000        542
  86.0000        489
  86.4000        525
  86.8000        512
  87.2000        489
  87.6000        502
  88.0000        530
  88.4000        517
  88.8000        529
  89.2000        490
  89.6000        545
  90.0000        481
  90.4000        520
  90.8000        525
  91.2000        521
  91.6000        511
  92.0000        545
  92.4000        541
  92.8000        473
  93.2000        534
  93.6000        496
  94.0000        549
  94.4000        503
  94.8000        544
  95.2000        512
  95.6000        476
  96.0000        528
  96.4000        492
  96.8000        498
  97.2000        532
  97.6000        532
  98.0000        536
  98.4000        569
  98.8000        692
  99.2000        820
  99.6000        799
 100.0000        620
 100.4000        501
 100.8000        537
 101.2000        558
 101.6000        486
 102.0000        497
 102.4000        529
 102.8000        510
 103.2000        500
 103.6000        486
 104.0000        537
 104.4000        509
 104.8000        510
 105.2000        489
 105.6000        510
 106.0000        536
 106.4000        503
 106.8000        508
 107.2000        534
 107.6000        492
 108.0000        496
 108.4000        474
 108.8000        493
 109.2000        516
 109.6000        500
 110.0000        539
 110.4000        535
 110.8000        535
 111.2000        493
 111.6000        513
 112.0000        508
 112.4000        460
 112.8000        510
 113.2000        510
 113.6000        463
 114.0000        530
 114.4000        492
 114.8000        503
 115.2000        514
 115.6000        507
 116.0000        472
 116.4000        491
 116.8000        501
 117.2000        486
 117.6000        520
 118.0000        511
 118.4000        499
 118.8000        498
 119.2000        498
 119.6000        511
 120.0000        468
 120.4000        529
 120.8000        517
 121.2000        521
 121.6000        483
[...]
  72.4000        348
  72.8000        370
  73.2000        319
  73.6000        333
  74.0000        384
  74.4000        366
  74.8000        349
  75.2000        407
  75.6000        404
  76.0000        432
  76.4000        461
  76.8000        432
  77.2000        448
  77.6000        421
  78.0000        441
  78.4000        369
  78.8000        359
  79.2000        339
  79.6000        346
  80.0000        353
  80.4000        356
  80.8000        362
  81.2000        382
  81.6000        354
  82.0000        368
  82.4000        372
  82.8000        361
  83.2000        389
  83.6000        342
  84.0000        384
  84.4000        378
  84.8000        326
  85.2000        368
  85.6000        383
  86.0000        389
  86.4000        361
  86.8000        393
  87.2000        390
  87.6000        382
  88.0000        377
  88.4000        383
  88.8000        395
  89.2000        387
  89.6000        407
  90.0000        366
  90.4000        396
  90.8000        402
  91.2000        406
  91.6000        414
  92.0000        431
  92.4000        442
  92.8000        406
  93.2000        387
  93.6000        415
  94.0000        367
  94.4000        430
  94.8000        411
  95.2000        411
  95.6000        407
  96.0000        388
  96.4000        399
  96.8000        378
  97.2000        434
  97.6000        438
  98.0000        452
  98.4000        603
  98.8000        625
  99.2000        618
  99.6000        600
 100.0000        534
 100.4000        486
 100.8000        416
 101.2000        427
 101.6000        390
 102.0000        422
 102.4000        412
 102.8000        424
 103.2000        413
 103.6000        440
 104.0000        425
 104.4000        396
 104.8000        423
 105.2000        411
 105.6000        413
 106.0000        432
 106.4000        444
 106.8000        418
 107.2000        441
 107.6000        424
 108.0000        458
 108.4000        415
 108.8000        440
 109.2000        430
 109.6000        471
 110.0000        410
 110.4000        455
 110.8000        459
 111.2000        446
 111.6000        436
 112.0000        438
 112.4000        443
 112.8000        436
 113.2000        413
 113.6000        452
 114.0000        426
 114.4000        436
 114.8000        433
 115.2000        435
 115.6000        437
 116.0000        457
 116.4000        413
 116.8000        433
 117.2000        407
 117.6000        415
 118.0000        466
 118.4000        420
 118.8000        452
 119.2000        449
 119.6000        452
 120.0000        419
 120.4000        440
 120.8000        439
 121.2000        467
 121.6000        438
 122.0000        472
 122.4000        501
 122.8000        532
 123.2000        559
 123.6000        595
 124.0000        536
 124.4000        473
 124.8000        470
 125.2000        507
 125.6000        433
 126.0000        481
 126.4000        466
 126.8000        476
 127.2000        443
 127.6000        449
 128.0000        429
 128.4000        451
 128.8000        432
 129.2000        445
 129.6000        413
 130.0000        438

; Data for range 53
_DRIVE = COUPLED
_STEPTIME = 0.2
_STEPSIZE = 0.1
_STEPMODE = C
_START = 40
_THETA = 20
_2THETA = 40
_KHI = 80
_PHI = 0
_X = 25
_Y = 25
_Z = 0
_DETECTOR = 1
; Detector type : Scintillation counter
_HV = 687
_GAIN = 80
_LLD = 0.69
_ULD = 1.866
_DETECTORSLIT = unkn
_AUX1 = 0
_AUX2 = 0
_AUX3 = 0
_TIMESTARTED = 1.03e+004
_TEMP_RATE = -1
_TEMP_DELAY = -1
_KV = 35
_MA = 40
_RANGE_WL = 1.78897
_3DPLANE = 0
_V4_ADDITIONALDETECTOR = 0
_V4_D8_DIBNUM = 1
_V4_DETECTORNAME = "Detector 1"
_V4_TTLDETECTOR = None
_V4_DETECTORTYPE = 1
_V4_DETECTORFLAGS = 524545
_V4_DETECTORHV = 687
_V4_DETECTORGAIN = 80
_V4_DETECTORLLD1 = 0.69
_V4_DETECTORWW1 = 1.176
_V4_DETECTORLLD2 = 0
_V4_DETECTORWW2 = 0
_V4_DETECTORPS = 0
_V4_DETECTORDT = 0
_V4_DETECTORPILEUPTIME = 0
_V4_COUNTERS_MASK = 1
_V4_DRIVES_MASK = 0
_V4_ENCODERS_MASK = 0
_2THETACOUNTS = 1
; 2THETA  Cnt1_D1
  40.0000        188
  40.4000        170
  40.8000        203
  41.2000        175
  41.6000        189
  42.0000        197
  42.4000        222
  42.8000        293
  43.2000        283
  43.6000        291
  44.0000        221
  44.4000        191
  44.8000        168
  45.2000        178
  45.6000        181
  46.0000        160
  46.4000        212
  46.8000        183
  47.2000        207
  47.6000        196
  48.0000        202
  48.4000        185
  48.8000        206
  49.2000        204
  49.6000        212
  50.0000        288
  50.4000        306
  50.8000        267
  51.2000        383
  51.6000        690
  52.0000        886
  52.4000        955
  52.8000        759
  53.2000        566
  53.6000        272
  54.0000        253
  54.4000        237
  54.8000        249
  55.2000        216
  55.6000        217
  56.0000        209
  56.4000        243
  56.8000        237
  57.2000        253
  57.6000        241
  58.0000        231
  58.4000        235
  58.8000        272
  59.2000        257
  59.6000        277
  60.0000        248
  60.4000        247
  60.8000        234
  61.2000        215
  61.6000        275
  62.0000        237
  62.4000        252
  62.8000        261
  63.2000        258
  63.6000        278
  64.0000        245
  64.4000        259
  64.8000        268
  65.2000        262
  65.6000        277
  66.0000        253
  66.4000        263
  66.8000        292
  67.2000        266
  67.6000        265
  68.0000        275
  68.4000        267
  68.8000        268
  69.2000        323
  69.6000        296
  70.0000        303
  70.4000        296
  70.8000        287
  71.2000        294
  71.6000        283
  72.0000        281
  72.4000        298
  72.8000        261
  73.2000        318
  73.6000        274
  74.0000        325
  74.4000        301
  74.8000        309
  75.2000        333
  75.6000        338
  76.0000        359
  76.4000        382
  76.8000        359
  77.2000        345
  77.6000        370
  78.0000        323
  78.4000        316
  78.8000        332
  79.2000        345
  79.6000        310
  80.0000        304
  80.4000        300
  80.8000        318
  81.2000        339
  81.6000        303
  82.0000        282
  82.4000        355
  82.8000        338
  83.2000        335
  83.6000        322
  84.0000        324
  84.4000        345
  84.8000        324
  85.2000        338
  85.6000        358
  86.0000        294
  86.4000        362
  86.8000        324
  87.2000        341
  87.6000        350
  88.0000        331
  88.4000        340
  88.8000        369
  89.2000        325
  89.6000        362
  90.0000        362
  90.4000        350
  90.8000        354
  91.2000        317
  91.6000        375
  92.0000        370
  92.4000        329
  92.8000        377
  93.2000        330
  93.6000        377
  94.0000        345
  94.4000        357
  94.8000        342
  95.2000        365
  95.6000        366
  96.0000        384
  96.4000        391
  96.8000        411
  97.2000        417
  97.6000        393
  98.0000        438
  98.4000        563
  98.8000        643
  99.2000        650
  99.6000        548
 100.0000        528
 100.4000        481
 100.8000        435
 101.2000        405
 101.6000        401
 102.0000        405
 102.4000        423
 102.8000        397
 103.2000        398
 103.6000        411
 104.0000        377
 104.4000        407
 104.8000        419
 105.2000        394
 105.6000        417
 106.0000        420
 106.4000        406
 106.8000        418
 107.2000        407
 107.6000        417
 108.0000        429
 108.4000        425
 108.8000        438
 109.2000        478
 109.6000        455
 110.0000        423
 110.4000        441
 110.8000        443
 111.2000        415
 111.6000        420
 112.0000        414
 112.4000        438
 112.8000        426
 113.2000        438
 113.6000        449
 114.0000        388
 114.4000        454
 114.8000        437
 115.2000        429
 115.6000        428
 116.0000        402
 116.4000        456
 116.8000        428
 117.2000        413
 117.6000        467
 118.0000        454
 118.4000        424
 118.8000        436
 119.2000        441
 119.6000        453
 120.0000        457
 120.4000        449
 120.8000        460
 121.2000        446
 121.6000        437
 122.0000        460
 122.4000        503
 122.8000        577
 123.2000        580
 123.6000        587
 124.0000        614
 124.4000        526
 124.8000        457
 125.2000        459
 125.6000        478
 126.0000        475
 126.4000        460
 126.8000        440
 127.2000        482
 127.6000        459
 128.0000        456
 128.4000        429
 128.8000        463
 129.2000        447
 129.6000        454
 130.0000        427