File: exp_dat/old/exp_2013_11_11/14pct_10L.uxd
; (content of file C:\DIFFDAT1\GIFT\MDL\Seawoong Lee\20131104_MV8\equal_area_maxkhi080_n8_2th40_130_x00y-25_10L.raw)
_FILEVERSION = 3
_SAMPLE =
_+SAMPLE =
_SITE = Korea
_USER = Admin
_GONIOMETER_CODE = 20
; Goniometer : D8 theta/2theta, stage : Unknown
_SAMPLE_CHANGER_CODE = 0
_ATTACHMENTS_CODE = 0
_GONIOMETER_RADIUS = 300
_FIXED_DIVSLIT = 1
_FIXED_SAMPLESLIT = 0
_SOLLER_SLITS = 2
_FIXED_DETSLIT = 0.1
_MONOCHROMATOR = 0
; Incident beam monochromator : None
_SOLLER_SLITS_2 = 2
_THIN_FILM = N
_BETA_FILTER = Y
_FIXED_ANTISLIT = 0.6
_ANALYZER_CODE = 0
; Received beam analyzer : None
_DATEMEASURED = "06-Nov-2013 22:01:14"
_WL_UNIT = A
_WL1 = 1.78897
_WL2 = 1.79285
_WL3 = 1.62079
_WLRATIO = 0.5
_ANODE = Co
_V4_INF_CREATOR = XRDWizard
_V4_INF_CREATOR_VERSION = V2.9.0.22
_V4_INF_WIZARD_VERSION = V2.9.0.22
_V4_INF_WIZARD_ADDINS = V2.9.0.22
_V4_INF_WIZARD_DOCTYPE = XRD
_V4_INF_OSUSER = Postech
_V4_INF_USER = Admin
_V4_INF_SITE = Korea

; Data for range 1
_DRIVE = COUPLED
_STEPTIME = 0.2
_STEPSIZE = 0.1
_STEPMODE = C
_START = 40
_THETA = 20
_2THETA = 40
_KHI = 0
_PHI = 0
_X = 0
_Y = -25
_Z = 0
_DETECTOR = 1
; Detector type : Scintillation counter
_HV = 687
_GAIN = 80
_LLD = 0.69
_ULD = 1.866
_DETECTORSLIT = unkn
_AUX1 = 0
_AUX2 = 0
_AUX3 = 0
_TIMESTARTED = 28
_TEMP_RATE = -1
_TEMP_DELAY = -1
_KV = 35
_MA = 40
_RANGE_WL = 1.78897
_3DPLANE = 0
_V4_ADDITIONALDETECTOR = 0
_V4_D8_DIBNUM = 1
_V4_DETECTORNAME = "Detector 1"
_V4_TTLDETECTOR = None
_V4_DETECTORTYPE = 1
_V4_DETECTORFLAGS = 524545
_V4_DETECTORHV = 687
_V4_DETECTORGAIN = 80
_V4_DETECTORLLD1 = 0.69
_V4_DETECTORWW1 = 1.176
_V4_DETECTORLLD2 = 0
_V4_DETECTORWW2 = 0
_V4_DETECTORPS = 0
_V4_DETECTORDT = 0
_V4_DETECTORPILEUPTIME = 0
_V4_COUNTERS_MASK = 1
_V4_DRIVES_MASK = 0
_V4_ENCODERS_MASK = 0
_2THETACOUNTS = 1
; 2THETA  Cnt1_D1
  40.0000        453
  40.4000        455
  40.8000        472
  41.2000        512
  41.6000        505
  42.0000        482
  42.4000        472
  42.8000        500
  43.2000        489
  43.6000        533
  44.0000        489
  44.4000        513
  44.8000        483
  45.2000        505
  45.6000        493
  46.0000        496
  46.4000        471
  46.8000        549
  47.2000        499
  47.6000        489
  48.0000        504
  48.4000        459
  48.8000        508
  49.2000        514
  49.6000        502
  50.0000        486
  50.4000        496
  50.8000        564
  51.2000        628
  51.6000        823
  52.0000       1448
  52.4000       1355
  52.8000        679
  53.2000        577
  53.6000        540
  54.0000        524
  54.4000        570
  54.8000        533
  55.2000        500
  55.6000        473
  56.0000        522
  56.4000        538
  56.8000        503
  57.2000        520
  57.6000        522
  58.0000        547
  58.4000        495
  58.8000        507
  59.2000        536
  59.6000        538
  60.0000        560
  60.4000        538
  60.8000        503
  61.2000        526
  61.6000        513
  62.0000        532
  62.4000        503
  62.8000        550
  63.2000        500
  63.6000        502
  64.0000        523
  64.4000        493
  64.8000        495
  65.2000        502
  65.6000        493
  66.0000        525
  66.4000        548
  66.8000        475
  67.2000        529
  67.6000        508
  68.0000        549
  68.4000        530
  68.8000        470
  69.2000        529
  69.6000        495
  70.0000        507
  70.4000        539
  70.8000        482
  71.2000        520
  71.6000        491
  72.0000        494
  72.4000        472
  72.8000        510
  73.2000        537
  73.6000        496
  74.0000        526
  74.4000        522
  74.8000        532
  75.2000        510
  75.6000        541
  76.0000        535
  76.4000        708
  76.8000       1050
  77.2000        972
  77.6000        609
  78.0000        520
  78.4000        554
  78.8000        533
  79.2000        520
  79.6000        540
  80.0000        487
  80.4000        483
  80.8000        537
  81.2000        554
  81.6000        491
  82.0000        557
  82.4000        516
  82.8000        536
  83.2000        535
  83.6000        483
  84.0000        551
  84.4000        563
  84.8000        516
  85.2000        527
  85.6000        488
  86.0000        517
  86.4000        572
  86.8000        506
  87.2000        547
  87.6000        496
  88.0000        550
  88.4000        526
  88.8000        545
  89.2000        559
  89.6000        576
  90.0000        588
  90.4000        518
  90.8000        507
  91.2000        482
  91.6000        494
  92.0000        499
  92.4000        521
  92.8000        452
  93.2000        493
  93.6000        514
  94.0000        507
  94.4000        493
  94.8000        539
  95.2000        533
  95.6000        477
  96.0000        549
  96.4000        461
  96.8000        563
  97.2000        541
  97.6000        525
  98.0000        515
  98.4000        590
  98.8000        881
  99.2000       1296
  99.6000       1240
 100.0000        751
 100.4000        549
 100.8000        519
 101.2000        504
 101.6000        498
 102.0000        538
 102.4000        501
 102.8000        510
 103.2000        546
 103.6000        524
 104.0000        537
 104.4000        501
 104.8000        506
 105.2000        496
 105.6000        502
 106.0000        515
 106.4000        519
 106.8000        492
 107.2000        546
 107.6000        509
 108.0000        530
 108.4000        492
 108.8000        510
 109.2000        560
 109.6000        522
 110.0000        516
 110.4000        561
 110.8000        566
 111.2000        522
 111.6000        591
 112.0000        539
 112.4000        546
 112.8000        521
 113.2000        508
 113.6000        517
 114.0000        547
 114.4000        504
 114.8000        567
 115.2000        512
 115.6000        502
 116.0000        483
 116.4000        496
 116.8000        528
 117.2000        545
 117.6000        495
 118.0000        527
 118.4000        489
 118.8000        521
 119.2000        523
 119.6000        574
 120.0000        563
 120.4000        480
 120.8000        480
 121.2000        506
 121.6000        503
 122.0000        480
 122.4000        502
 122.8000        588
 123.2000        605
 123.6000        559
 124.0000        561
 124.4000        570
 124.8000        517
 125.2000        570
 125.6000        519
 126.0000        484
 126.4000        530
 126.8000        507
 127.2000        511
 127.6000        492
 128.0000        525
 128.4000        585
 128.8000        502
 129.2000        486
 129.6000        456
 130.0000        468

; Data for range 2
_DRIVE = COUPLED
_STEPTIME = 0.2
_STEPSIZE = 0.1
_STEPMODE = C
_START = 40
_THETA = 20
_2THETA = 40
_KHI = 10.5
_PHI = 60
_X = 0
_Y = -25
_Z = 0
_DETECTOR = 1
; Detector type : Scintillation counter
_HV = 687
_GAIN = 80
_LLD = 0.69
_ULD = 1.866
_DETECTORSLIT = unkn
_AUX1 = 0
_AUX2 = 0
_AUX3 = 0
_TIMESTARTED = 225
_TEMP_RATE = -1
_TEMP_DELAY = -1
_KV = 35
_MA = 40
_RANGE_WL = 1.78897
_3DPLANE = 0
_V4_ADDITIONALDETECTOR = 0
_V4_D8_DIBNUM = 1
_V4_DETECTORNAME = "Detector 1"
_V4_TTLDETECTOR = None
_V4_DETECTORTYPE = 1
_V4_DETECTORFLAGS = 524545
_V4_DETECTORHV = 687
_V4_DETECTORGAIN = 80
_V4_DETECTORLLD1 = 0.69
_V4_DETECTORWW1 = 1.176
_V4_DETECTORLLD2 = 0
_V4_DETECTORWW2 = 0
_V4_DETECTORPS = 0
_V4_DETECTORDT = 0
_V4_DETECTORPILEUPTIME = 0
_V4_COUNTERS_MASK = 1
_V4_DRIVES_MASK = 0
_V4_ENCODERS_MASK = 0
_2THETACOUNTS = 1
; 2THETA  Cnt1_D1
  40.0000        564
  40.4000        527
  40.8000        532
  41.2000        528
  41.6000        525
  42.0000        519
  42.4000        540
  42.8000        493
  43.2000        522
  43.6000        562
  44.0000        569
  44.4000        480
  44.8000        558
  45.2000        508
  45.6000        556
  46.0000        548
  46.4000        553
  46.8000        546
  47.2000        556
  47.6000        528
  48.0000        540
  48.4000        574
  48.8000        541
  49.2000        550
  49.6000        491
  50.0000        564
  50.4000        549
  50.8000        583
  51.2000        624
  51.6000        945
  52.0000       1491
  52.4000       1447
  52.8000        617
  53.2000        510
  53.6000        525
  54.0000        526
  54.4000        544
  54.8000        527
  55.2000        497
  55.6000        532
  56.0000        504
  56.4000        481
  56.8000        592
  57.2000        536
  57.6000        505
  58.0000        546
  58.4000        590
  58.8000        510
  59.2000        573
  59.6000        590
  60.0000        537
  60.4000        469
  60.8000        512
  61.2000        504
  61.6000        509
  62.0000        517
  62.4000        573
  62.8000        520
  63.2000        500
  63.6000        503
  64.0000        505
  64.4000        501
  64.8000        534
  65.2000        508
  65.6000        509
  66.0000        496
  66.4000        541
  66.8000        505
  67.2000        512
  67.6000        547
  68.0000        518
  68.4000        563
  68.8000        490
  69.2000        528
  69.6000        506
  70.0000        556
  70.4000        531
  70.8000        524
  71.2000        553
  71.6000        553
  72.0000        532
  72.4000        488
  72.8000        500
  73.2000        499
  73.6000        543
  74.0000        571
  74.4000        492
  74.8000        552
  75.2000        518
  75.6000        534
  76.0000        557
  76.4000        670
  76.8000        796
  77.2000        686
  77.6000        604
  78.0000        512
  78.4000        527
  78.8000        509
  79.2000        496
  79.6000        500
  80.0000        516
  80.4000        532
  80.8000        488
  81.2000        524
  81.6000        522
  82.0000        523
  82.4000        516
  82.8000        533
  83.2000        519
  83.6000        500
  84.0000        517
  84.4000        533
  84.8000        557
  85.2000        532
  85.6000        534
  86.0000        548
  86.4000        528
  86.8000        539
  87.2000        498
  87.6000        520
  88.0000        512
  88.4000        507
  88.8000        545
  89.2000        584
  89.6000        560
  90.0000        503
  90.4000        510
  90.8000        519
  91.2000        536
  91.6000        523
  92.0000        507
  92.4000        510
  92.8000        483
  93.2000        499
  93.6000        508
  94.0000        518
  94.4000        530
  94.8000        542
  95.2000        510
  95.6000        527
  96.0000        508
  96.4000        514
  96.8000        488
  97.2000        521
  97.6000        500
  98.0000        574
  98.4000        588
  98.8000        817
  99.2000       1129
  99.6000       1107
 100.0000        661
 100.4000        541
 100.8000        560
 101.2000        532
 101.6000        528
 102.0000        483
 102.4000        533
 102.8000        519
 103.2000        516
 103.6000        483
 104.0000        538
 104.4000        533
 104.8000        506
 105.2000        513
 105.6000        536
 106.0000        520
 106.4000        482
 106.8000        529
 107.2000        537
 107.6000        517
 108.0000        488
 108.4000        501
 108.8000        530
 109.2000        525
 109.6000        532
 110.0000        566
 110.4000        538
 110.8000        551
 111.2000        532
 111.6000        557
 112.0000        499
 112.4000        529
 112.8000        551
 113.2000        511
 113.6000        505
 114.0000        543
 114.4000        499
 114.8000        469
 115.2000        496
 115.6000        520
 116.0000        529
 116.4000        498
 116.8000        518
 117.2000        487
 117.6000        487
 118.0000        508
 118.4000        511
 118.8000        494
 119.2000        456
 119.6000        520
 120.0000        517
 120.4000        555
 120.8000        523
 121.2000        541
 121.6000        509
 122.0000        562
 122.4000        530
 122.8000        592
 123.2000        603
 123.6000        591
 124.0000        546
 124.4000        532
 124.8000        547
 125.2000        504
 125.6000        501
 126.0000        536
 126.4000        486
 126.8000        545
 127.2000        482
 127.6000        484
 128.0000        555
 128.4000        519
 128.8000        505
 129.2000        493
 129.6000        509
 130.0000        516

; Data for range 3
_DRIVE = COUPLED
_STEPTIME = 0.2
_STEPSIZE = 0.1
_STEPMODE = C
_START = 40
_THETA = 20
_2THETA = 40
_KHI = 18.3
_PHI = 90
_X = 0
_Y = -25
_Z = 0
_DETECTOR = 1
; Detector type : Scintillation counter
_HV = 687
_GAIN = 80
_LLD = 0.69
_ULD = 1.866
_DETECTORSLIT = unkn
_AUX1 = 0
_AUX2 = 0
_AUX3 = 0
_TIMESTARTED = 422
_TEMP_RATE = -1
_TEMP_DELAY = -1
_KV = 35
_MA = 40
_RANGE_WL = 1.78897
_3DPLANE = 0
_V4_ADDITIONALDETECTOR = 0
_V4_D8_DIBNUM = 1
_V4_DETECTORNAME = "Detector 1"
_V4_TTLDETECTOR = None
_V4_DETECTORTYPE = 1
_V4_DETECTORFLAGS = 524545
_V4_DETECTORHV = 687
_V4_DETECTORGAIN = 80
_V4_DETECTORLLD1 = 0.69
_V4_DETECTORWW1 = 1.176
_V4_DETECTORLLD2 = 0
_V4_DETECTORWW2 = 0
_V4_DETECTORPS = 0
_V4_DETECTORDT = 0
_V4_DETECTORPILEUPTIME = 0
_V4_COUNTERS_MASK = 1
_V4_DRIVES_MASK = 0
_V4_ENCODERS_MASK = 0
_2THETACOUNTS = 1
; 2THETA  Cnt1_D1
  40.0000        530
  40.4000        486
  40.8000        512
  41.2000        527
  41.6000        551
  42.0000        538
  42.4000        506
  42.8000        498
  43.2000        559
  43.6000        533
  44.0000        542
  44.4000        544
  44.8000        546
  45.2000        485
  45.6000        499
  46.0000        519
  46.4000        503
  46.8000        544
  47.2000        532
  47.6000        516
  48.0000        520
  48.4000        538
  48.8000        564
  49.2000        531
  49.6000        531
  50.0000        542
  50.4000        534
  50.8000        604
  51.2000        646
  51.6000        871
  52.0000       1388
  52.4000       1328
  52.8000        612
  53.2000        524
  53.6000        507
  54.0000        514
  54.4000        540
  54.8000        555
  55.2000        528
  55.6000        552
  56.0000        526
  56.4000        550
  56.8000        492
  57.2000        510
  57.6000        504
  58.0000        519
  58.4000        555
  58.8000        505
  59.2000        565
  59.6000        560
  60.0000        538
  60.4000        506
  60.8000        521
  61.2000        512
  61.6000        514
  62.0000        536
  62.4000        502
  62.8000        515
  63.2000        507
  63.6000        552
  64.0000        537
  64.4000        525
  64.8000        589
  65.2000        524
  65.6000        513
  66.0000        492
  66.4000        528
  66.8000        525
  67.2000        513
  67.6000        538
  68.0000        526
  68.4000        507
  68.8000        550
  69.2000        507
  69.6000        499
  70.0000        486
  70.4000        474
  70.8000        513
  71.2000        541
  71.6000        528
  72.0000        532
  72.4000        483
  72.8000        525
  73.2000        515
  73.6000        544
  74.0000        542
  74.4000        515
  74.8000        474
  75.2000        549
  75.6000        539
  76.0000        545
  76.4000        743
  76.8000        962
  77.2000        861
  77.6000        605
  78.0000        527
  78.4000        533
  78.8000        505
  79.2000        492
  79.6000        513
  80.0000        509
  80.4000        510
  80.8000        512
  81.2000        507
  81.6000        517
  82.0000        508
  82.4000        495
  82.8000        506
  83.2000        471
  83.6000        512
  84.0000        530
  84.4000        492
  84.8000        523
  85.2000        502
  85.6000        515
  86.0000        518
  86.4000        517
  86.8000        538
  87.2000        509
  87.6000        518
  88.0000        503
  88.4000        521
  88.8000        520
  89.2000        508
  89.6000        554
  90.0000        539
  90.4000        512
  90.8000        498
  91.2000        520
  91.6000        558
  92.0000        485
  92.4000        499
  92.8000        508
  93.2000        523
  93.6000        469
  94.0000        527
  94.4000        499
  94.8000        533
  95.2000        542
  95.6000        490
  96.0000        530
  96.4000        547
  96.8000        519
  97.2000        477
  97.6000        539
  98.0000        575
  98.4000        593
  98.8000        885
  99.2000       1329
  99.6000       1153
 100.0000        683
 100.4000        581
 100.8000        556
 101.2000        533
 101.6000        485
 102.0000        476
 102.4000        506
 102.8000        514
 103.2000        510
 103.6000        521
 104.0000        507
 104.4000        506
 104.8000        492
 105.2000        550
 105.6000        507
 106.0000        511
 106.4000        526
 106.8000        568
 107.2000        523
 107.6000        520
 108.0000        490
 108.4000        484
 108.8000        523
 109.2000        505
 109.6000        525
 110.0000        560
 110.4000        532
 110.8000        587
 111.2000        529
 111.6000        569
 112.0000        526
 112.4000        529
 112.8000        478
 113.2000        489
 113.6000        507
 114.0000        513
 114.4000        510
 114.8000        528
 115.2000        547
 115.6000        491
 116.0000        548
 116.4000        503
 116.8000        526
 117.2000        551
 117.6000        494
 118.0000        552
 118.4000        544
 118.8000        521
 119.2000        495
 119.6000        496
 120.0000        506
 120.4000        525
 120.8000        507
 121.2000        541
 121.6000        493
[...]
  72.4000        267
  72.8000        246
  73.2000        297
  73.6000        304
  74.0000        262
  74.4000        276
  74.8000        289
  75.2000        321
  75.6000        299
  76.0000        297
  76.4000        325
  76.8000        327
  77.2000        345
  77.6000        354
  78.0000        278
  78.4000        279
  78.8000        287
  79.2000        296
  79.6000        265
  80.0000        288
  80.4000        296
  80.8000        279
  81.2000        281
  81.6000        293
  82.0000        278
  82.4000        272
  82.8000        286
  83.2000        254
  83.6000        300
  84.0000        291
  84.4000        259
  84.8000        301
  85.2000        288
  85.6000        306
  86.0000        287
  86.4000        293
  86.8000        297
  87.2000        287
  87.6000        327
  88.0000        312
  88.4000        338
  88.8000        315
  89.2000        289
  89.6000        306
  90.0000        297
  90.4000        313
  90.8000        306
  91.2000        314
  91.6000        307
  92.0000        339
  92.4000        386
  92.8000        362
  93.2000        291
  93.6000        302
  94.0000        321
  94.4000        282
  94.8000        320
  95.2000        308
  95.6000        306
  96.0000        301
  96.4000        301
  96.8000        344
  97.2000        291
  97.6000        343
  98.0000        361
  98.4000        385
  98.8000        440
  99.2000        463
  99.6000        487
 100.0000        443
 100.4000        355
 100.8000        356
 101.2000        329
 101.6000        311
 102.0000        326
 102.4000        328
 102.8000        335
 103.2000        336
 103.6000        344
 104.0000        324
 104.4000        326
 104.8000        306
 105.2000        339
 105.6000        335
 106.0000        343
 106.4000        328
 106.8000        366
 107.2000        353
 107.6000        330
 108.0000        336
 108.4000        322
 108.8000        356
 109.2000        348
 109.6000        371
 110.0000        329
 110.4000        355
 110.8000        338
 111.2000        354
 111.6000        371
 112.0000        349
 112.4000        314
 112.8000        350
 113.2000        335
 113.6000        352
 114.0000        343
 114.4000        308
 114.8000        365
 115.2000        350
 115.6000        352
 116.0000        365
 116.4000        342
 116.8000        339
 117.2000        353
 117.6000        356
 118.0000        327
 118.4000        368
 118.8000        383
 119.2000        347
 119.6000        332
 120.0000        400
 120.4000        371
 120.8000        364
 121.2000        318
 121.6000        370
 122.0000        399
 122.4000        368
 122.8000        400
 123.2000        429
 123.6000        429
 124.0000        382
 124.4000        389
 124.8000        377
 125.2000        362
 125.6000        370
 126.0000        366
 126.4000        339
 126.8000        365
 127.2000        375
 127.6000        386
 128.0000        360
 128.4000        353
 128.8000        366
 129.2000        346
 129.6000        381
 130.0000        364

; Data for range 53
_DRIVE = COUPLED
_STEPTIME = 0.2
_STEPSIZE = 0.1
_STEPMODE = C
_START = 40
_THETA = 20
_2THETA = 40
_KHI = 80
_PHI = 0
_X = 0
_Y = -25
_Z = 0
_DETECTOR = 1
; Detector type : Scintillation counter
_HV = 687
_GAIN = 80
_LLD = 0.69
_ULD = 1.866
_DETECTORSLIT = unkn
_AUX1 = 0
_AUX2 = 0
_AUX3 = 0
_TIMESTARTED = 1.03e+004
_TEMP_RATE = -1
_TEMP_DELAY = -1
_KV = 35
_MA = 40
_RANGE_WL = 1.78897
_3DPLANE = 0
_V4_ADDITIONALDETECTOR = 0
_V4_D8_DIBNUM = 1
_V4_DETECTORNAME = "Detector 1"
_V4_TTLDETECTOR = None
_V4_DETECTORTYPE = 1
_V4_DETECTORFLAGS = 524545
_V4_DETECTORHV = 687
_V4_DETECTORGAIN = 80
_V4_DETECTORLLD1 = 0.69
_V4_DETECTORWW1 = 1.176
_V4_DETECTORLLD2 = 0
_V4_DETECTORWW2 = 0
_V4_DETECTORPS = 0
_V4_DETECTORDT = 0
_V4_DETECTORPILEUPTIME = 0
_V4_COUNTERS_MASK = 1
_V4_DRIVES_MASK = 0
_V4_ENCODERS_MASK = 0
_2THETACOUNTS = 1
; 2THETA  Cnt1_D1
  40.0000        147
  40.4000        163
  40.8000        122
  41.2000        157
  41.6000        144
  42.0000        151
  42.4000        137
  42.8000        154
  43.2000        220
  43.6000        223
  44.0000        218
  44.4000        176
  44.8000        153
  45.2000        146
  45.6000        150
  46.0000        137
  46.4000        174
  46.8000        157
  47.2000        165
  47.6000        164
  48.0000        181
  48.4000        176
  48.8000        144
  49.2000        163
  49.6000        167
  50.0000        178
  50.4000        219
  50.8000        259
  51.2000        305
  51.6000        449
  52.0000        735
  52.4000        868
  52.8000        680
  53.2000        358
  53.6000        214
  54.0000        142
  54.4000        210
  54.8000        179
  55.2000        212
  55.6000        166
  56.0000        191
  56.4000        197
  56.8000        171
  57.2000        166
  57.6000        186
  58.0000        198
  58.4000        218
  58.8000        199
  59.2000        198
  59.6000        177
  60.0000        214
  60.4000        205
  60.8000        220
  61.2000        203
  61.6000        200
  62.0000        178
  62.4000        180
  62.8000        214
  63.2000        180
  63.6000        179
  64.0000        196
  64.4000        217
  64.8000        196
  65.2000        232
  65.6000        210
  66.0000        196
  66.4000        193
  66.8000        197
  67.2000        208
  67.6000        196
  68.0000        187
  68.4000        175
  68.8000        195
  69.2000        219
  69.6000        228
  70.0000        214
  70.4000        190
  70.8000        219
  71.2000        212
  71.6000        216
  72.0000        224
  72.4000        203
  72.8000        229
  73.2000        214
  73.6000        202
  74.0000        226
  74.4000        241
  74.8000        213
  75.2000        230
  75.6000        213
  76.0000        221
  76.4000        248
  76.8000        248
  77.2000        269
  77.6000        279
  78.0000        262
  78.4000        225
  78.8000        209
  79.2000        228
  79.6000        212
  80.0000        229
  80.4000        253
  80.8000        215
  81.2000        222
  81.6000        237
  82.0000        232
  82.4000        226
  82.8000        252
  83.2000        217
  83.6000        229
  84.0000        236
  84.4000        252
  84.8000        229
  85.2000        244
  85.6000        233
  86.0000        246
  86.4000        230
  86.8000        231
  87.2000        230
  87.6000        222
  88.0000        261
  88.4000        242
  88.8000        246
  89.2000        228
  89.6000        252
  90.0000        260
  90.4000        264
  90.8000        265
  91.2000        290
  91.6000        278
  92.0000        236
  92.4000        259
  92.8000        256
  93.2000        244
  93.6000        271
  94.0000        285
  94.4000        256
  94.8000        247
  95.2000        290
  95.6000        263
  96.0000        272
  96.4000        291
  96.8000        301
  97.2000        285
  97.6000        268
  98.0000        287
  98.4000        354
  98.8000        358
  99.2000        443
  99.6000        443
 100.0000        365
 100.4000        350
 100.8000        322
 101.2000        289
 101.6000        282
 102.0000        265
 102.4000        286
 102.8000        265
 103.2000        305
 103.6000        269
 104.0000        290
 104.4000        290
 104.8000        295
 105.2000        300
 105.6000        296
 106.0000        293
 106.4000        313
 106.8000        312
 107.2000        350
 107.6000        327
 108.0000        320
 108.4000        315
 108.8000        287
 109.2000        336
 109.6000        313
 110.0000        339
 110.4000        361
 110.8000        329
 111.2000        340
 111.6000        334
 112.0000        349
 112.4000        318
 112.8000        322
 113.2000        307
 113.6000        308
 114.0000        300
 114.4000        299
 114.8000        336
 115.2000        348
 115.6000        339
 116.0000        340
 116.4000        298
 116.8000        347
 117.2000        353
 117.6000        330
 118.0000        363
 118.4000        363
 118.8000        348
 119.2000        345
 119.6000        348
 120.0000        313
 120.4000        354
 120.8000        356
 121.2000        339
 121.6000        356
 122.0000        384
 122.4000        427
 122.8000        450
 123.2000        476
 123.6000        493
 124.0000        438
 124.4000        381
 124.8000        397
 125.2000        367
 125.6000        380
 126.0000        364
 126.4000        381
 126.8000        360
 127.2000        344
 127.6000        384
 128.0000        382
 128.4000        349
 128.8000        357
 129.2000        358
 129.6000        375
 130.0000        328