File: exp_dat/old/exp_2013_11_11/15pct_10G.uxd
; (content of file C:\DIFFDAT1\GIFT\MDL\Seawoong Lee\20131104_MV8\equal_area_maxkhi080_n8_2th40_130_x25y00_10g.raw)
_FILEVERSION = 3
_SAMPLE =
_+SAMPLE =
_SITE = Korea
_USER = Admin
_GONIOMETER_CODE = 20
; Goniometer : D8 theta/2theta, stage : Unknown
_SAMPLE_CHANGER_CODE = 0
_ATTACHMENTS_CODE = 0
_GONIOMETER_RADIUS = 300
_FIXED_DIVSLIT = 1
_FIXED_SAMPLESLIT = 0
_SOLLER_SLITS = 2
_FIXED_DETSLIT = 0.1
_MONOCHROMATOR = 0
; Incident beam monochromator : None
_SOLLER_SLITS_2 = 2
_THIN_FILM = N
_BETA_FILTER = Y
_FIXED_ANTISLIT = 0.6
_ANALYZER_CODE = 0
; Received beam analyzer : None
_DATEMEASURED = "08-Nov-2013 15:48:33"
_WL_UNIT = A
_WL1 = 1.78897
_WL2 = 1.79285
_WL3 = 1.62079
_WLRATIO = 0.5
_ANODE = Co
_V4_INF_CREATOR = XRDWizard
_V4_INF_CREATOR_VERSION = V2.9.0.22
_V4_INF_WIZARD_VERSION = V2.9.0.22
_V4_INF_WIZARD_ADDINS = V2.9.0.22
_V4_INF_WIZARD_DOCTYPE = XRD
_V4_INF_OSUSER = Postech
_V4_INF_USER = Admin
_V4_INF_SITE = Korea

; Data for range 1
_DRIVE = COUPLED
_STEPTIME = 0.2
_STEPSIZE = 0.1
_STEPMODE = C
_START = 40
_THETA = 20
_2THETA = 40
_KHI = 0
_PHI = 0
_X = 25
_Y = 0
_Z = 0
_DETECTOR = 1
; Detector type : Scintillation counter
_HV = 687
_GAIN = 80
_LLD = 0.69
_ULD = 1.866
_DETECTORSLIT = unkn
_AUX1 = 0
_AUX2 = 0
_AUX3 = 0
_TIMESTARTED = 28
_TEMP_RATE = -1
_TEMP_DELAY = -1
_KV = 35
_MA = 40
_RANGE_WL = 1.78897
_3DPLANE = 0
_V4_ADDITIONALDETECTOR = 0
_V4_D8_DIBNUM = 1
_V4_DETECTORNAME = "Detector 1"
_V4_TTLDETECTOR = None
_V4_DETECTORTYPE = 1
_V4_DETECTORFLAGS = 524545
_V4_DETECTORHV = 687
_V4_DETECTORGAIN = 80
_V4_DETECTORLLD1 = 0.69
_V4_DETECTORWW1 = 1.176
_V4_DETECTORLLD2 = 0
_V4_DETECTORWW2 = 0
_V4_DETECTORPS = 0
_V4_DETECTORDT = 0
_V4_DETECTORPILEUPTIME = 0
_V4_COUNTERS_MASK = 1
_V4_DRIVES_MASK = 0
_V4_ENCODERS_MASK = 0
_2THETACOUNTS = 1
; 2THETA  Cnt1_D1
  40.0000        469
  40.4000        460
  40.8000        487
  41.2000        459
  41.6000        452
  42.0000        477
  42.4000        480
  42.8000        443
  43.2000        449
  43.6000        462
  44.0000        529
  44.4000        439
  44.8000        501
  45.2000        489
  45.6000        484
  46.0000        520
  46.4000        470
  46.8000        496
  47.2000        522
  47.6000        460
  48.0000        487
  48.4000        471
  48.8000        491
  49.2000        518
  49.6000        507
  50.0000        483
  50.4000        532
  50.8000        542
  51.2000        555
  51.6000        711
  52.0000       1156
  52.4000       1162
  52.8000        646
  53.2000        536
  53.6000        554
  54.0000        530
  54.4000        511
  54.8000        574
  55.2000        546
  55.6000        479
  56.0000        492
  56.4000        556
  56.8000        506
  57.2000        481
  57.6000        515
  58.0000        557
  58.4000        533
  58.8000        481
  59.2000        488
  59.6000        537
  60.0000        557
  60.4000        518
  60.8000        536
  61.2000        513
  61.6000        522
  62.0000        486
  62.4000        542
  62.8000        515
  63.2000        534
  63.6000        482
  64.0000        540
  64.4000        510
  64.8000        536
  65.2000        500
  65.6000        476
  66.0000        537
  66.4000        511
  66.8000        492
  67.2000        521
  67.6000        527
  68.0000        508
  68.4000        516
  68.8000        493
  69.2000        490
  69.6000        479
  70.0000        492
  70.4000        483
  70.8000        529
  71.2000        535
  71.6000        525
  72.0000        510
  72.4000        509
  72.8000        516
  73.2000        522
  73.6000        493
  74.0000        504
  74.4000        508
  74.8000        510
  75.2000        486
  75.6000        545
  76.0000        681
  76.4000       1094
  76.8000       1276
  77.2000       1039
  77.6000        632
  78.0000        527
  78.4000        523
  78.8000        543
  79.2000        514
  79.6000        546
  80.0000        520
  80.4000        496
  80.8000        496
  81.2000        512
  81.6000        486
  82.0000        466
  82.4000        524
  82.8000        506
  83.2000        497
  83.6000        535
  84.0000        537
  84.4000        554
  84.8000        502
  85.2000        537
  85.6000        518
  86.0000        468
  86.4000        466
  86.8000        503
  87.2000        486
  87.6000        515
  88.0000        522
  88.4000        505
  88.8000        512
  89.2000        520
  89.6000        507
  90.0000        525
  90.4000        555
  90.8000        515
  91.2000        503
  91.6000        488
  92.0000        482
  92.4000        519
  92.8000        478
  93.2000        540
  93.6000        519
  94.0000        516
  94.4000        465
  94.8000        527
  95.2000        503
  95.6000        509
  96.0000        557
  96.4000        509
  96.8000        544
  97.2000        485
  97.6000        522
  98.0000        570
  98.4000        690
  98.8000       1175
  99.2000       1594
  99.6000       1328
 100.0000        807
 100.4000        619
 100.8000        573
 101.2000        561
 101.6000        532
 102.0000        563
 102.4000        532
 102.8000        504
 103.2000        504
 103.6000        510
 104.0000        531
 104.4000        520
 104.8000        529
 105.2000        521
 105.6000        507
 106.0000        485
 106.4000        522
 106.8000        503
 107.2000        524
 107.6000        506
 108.0000        507
 108.4000        502
 108.8000        477
 109.2000        521
 109.6000        483
 110.0000        522
 110.4000        471
 110.8000        497
 111.2000        544
 111.6000        519
 112.0000        550
 112.4000        527
 112.8000        519
 113.2000        500
 113.6000        492
 114.0000        523
 114.4000        514
 114.8000        524
 115.2000        531
 115.6000        524
 116.0000        504
 116.4000        518
 116.8000        510
 117.2000        506
 117.6000        490
 118.0000        503
 118.4000        537
 118.8000        477
 119.2000        484
 119.6000        515
 120.0000        513
 120.4000        516
 120.8000        517
 121.2000        514
 121.6000        552
 122.0000        518
 122.4000        548
 122.8000        515
 123.2000        530
 123.6000        536
 124.0000        538
 124.4000        523
 124.8000        527
 125.2000        517
 125.6000        546
 126.0000        526
 126.4000        526
 126.8000        548
 127.2000        488
 127.6000        558
 128.0000        524
 128.4000        453
 128.8000        545
 129.2000        464
 129.6000        494
 130.0000        505

; Data for range 2
_DRIVE = COUPLED
_STEPTIME = 0.2
_STEPSIZE = 0.1
_STEPMODE = C
_START = 40
_THETA = 20
_2THETA = 40
_KHI = 10.5
_PHI = 60
_X = 25
_Y = 0
_Z = 0
_DETECTOR = 1
; Detector type : Scintillation counter
_HV = 687
_GAIN = 80
_LLD = 0.69
_ULD = 1.866
_DETECTORSLIT = unkn
_AUX1 = 0
_AUX2 = 0
_AUX3 = 0
_TIMESTARTED = 225
_TEMP_RATE = -1
_TEMP_DELAY = -1
_KV = 35
_MA = 40
_RANGE_WL = 1.78897
_3DPLANE = 0
_V4_ADDITIONALDETECTOR = 0
_V4_D8_DIBNUM = 1
_V4_DETECTORNAME = "Detector 1"
_V4_TTLDETECTOR = None
_V4_DETECTORTYPE = 1
_V4_DETECTORFLAGS = 524545
_V4_DETECTORHV = 687
_V4_DETECTORGAIN = 80
_V4_DETECTORLLD1 = 0.69
_V4_DETECTORWW1 = 1.176
_V4_DETECTORLLD2 = 0
_V4_DETECTORWW2 = 0
_V4_DETECTORPS = 0
_V4_DETECTORDT = 0
_V4_DETECTORPILEUPTIME = 0
_V4_COUNTERS_MASK = 1
_V4_DRIVES_MASK = 0
_V4_ENCODERS_MASK = 0
_2THETACOUNTS = 1
; 2THETA  Cnt1_D1
  40.0000        533
  40.4000        516
  40.8000        507
  41.2000        563
  41.6000        533
  42.0000        508
  42.4000        517
  42.8000        546
  43.2000        502
  43.6000        548
  44.0000        516
  44.4000        520
  44.8000        534
  45.2000        558
  45.6000        563
  46.0000        515
  46.4000        557
  46.8000        512
  47.2000        504
  47.6000        552
  48.0000        550
  48.4000        507
  48.8000        498
  49.2000        520
  49.6000        504
  50.0000        567
  50.4000        497
  50.8000        551
  51.2000        545
  51.6000        849
  52.0000       1289
  52.4000       1298
  52.8000        652
  53.2000        546
  53.6000        512
  54.0000        520
  54.4000        522
  54.8000        508
  55.2000        528
  55.6000        501
  56.0000        515
  56.4000        496
  56.8000        581
  57.2000        510
  57.6000        526
  58.0000        518
  58.4000        509
  58.8000        560
  59.2000        502
  59.6000        547
  60.0000        504
  60.4000        503
  60.8000        536
  61.2000        516
  61.6000        497
  62.0000        531
  62.4000        493
  62.8000        487
  63.2000        481
  63.6000        537
  64.0000        524
  64.4000        466
  64.8000        492
  65.2000        521
  65.6000        512
  66.0000        487
  66.4000        520
  66.8000        533
  67.2000        484
  67.6000        508
  68.0000        468
  68.4000        562
  68.8000        478
  69.2000        520
  69.6000        472
  70.0000        537
  70.4000        515
  70.8000        484
  71.2000        449
  71.6000        498
  72.0000        513
  72.4000        534
  72.8000        491
  73.2000        489
  73.6000        545
  74.0000        497
  74.4000        530
  74.8000        454
  75.2000        506
  75.6000        531
  76.0000        524
  76.4000        694
  76.8000        781
  77.2000        633
  77.6000        577
  78.0000        541
  78.4000        549
  78.8000        517
  79.2000        501
  79.6000        492
  80.0000        515
  80.4000        534
  80.8000        545
  81.2000        534
  81.6000        503
  82.0000        496
  82.4000        509
  82.8000        482
  83.2000        530
  83.6000        494
  84.0000        546
  84.4000        484
  84.8000        506
  85.2000        452
  85.6000        494
  86.0000        541
  86.4000        504
  86.8000        528
  87.2000        492
  87.6000        520
  88.0000        528
  88.4000        502
  88.8000        527
  89.2000        491
  89.6000        505
  90.0000        539
  90.4000        496
  90.8000        506
  91.2000        499
  91.6000        513
  92.0000        547
  92.4000        533
  92.8000        493
  93.2000        522
  93.6000        526
  94.0000        502
  94.4000        507
  94.8000        493
  95.2000        527
  95.6000        527
  96.0000        516
  96.4000        509
  96.8000        506
  97.2000        508
  97.6000        502
  98.0000        542
  98.4000        631
  98.8000        807
  99.2000        954
  99.6000        896
 100.0000        624
 100.4000        555
 100.8000        541
 101.2000        515
 101.6000        505
 102.0000        511
 102.4000        468
 102.8000        518
 103.2000        495
 103.6000        505
 104.0000        533
 104.4000        485
 104.8000        503
 105.2000        522
 105.6000        508
 106.0000        470
 106.4000        550
 106.8000        535
 107.2000        537
 107.6000        533
 108.0000        513
 108.4000        529
 108.8000        527
 109.2000        527
 109.6000        510
 110.0000        507
 110.4000        485
 110.8000        514
 111.2000        479
 111.6000        495
 112.0000        511
 112.4000        539
 112.8000        521
 113.2000        449
 113.6000        492
 114.0000        520
 114.4000        477
 114.8000        523
 115.2000        540
 115.6000        506
 116.0000        537
 116.4000        489
 116.8000        522
 117.2000        504
 117.6000        462
 118.0000        455
 118.4000        500
 118.8000        526
 119.2000        493
 119.6000        533
 120.0000        505
 120.4000        491
 120.8000        518
 121.2000        488
 121.6000        488
 122.0000        484
 122.4000        508
 122.8000        553
 123.2000        527
 123.6000        560
 124.0000        515
 124.4000        536
 124.8000        528
 125.2000        471
 125.6000        528
 126.0000        527
 126.4000        502
 126.8000        485
 127.2000        498
 127.6000        514
 128.0000        482
 128.4000        507
 128.8000        492
 129.2000        484
 129.6000        484
 130.0000        504

; Data for range 3
_DRIVE = COUPLED
_STEPTIME = 0.2
_STEPSIZE = 0.1
_STEPMODE = C
_START = 40
_THETA = 20
_2THETA = 40
_KHI = 18.3
_PHI = 90
_X = 25
_Y = 0
_Z = 0
_DETECTOR = 1
; Detector type : Scintillation counter
_HV = 687
_GAIN = 80
_LLD = 0.69
_ULD = 1.866
_DETECTORSLIT = unkn
_AUX1 = 0
_AUX2 = 0
_AUX3 = 0
_TIMESTARTED = 423
_TEMP_RATE = -1
_TEMP_DELAY = -1
_KV = 35
_MA = 40
_RANGE_WL = 1.78897
_3DPLANE = 0
_V4_ADDITIONALDETECTOR = 0
_V4_D8_DIBNUM = 1
_V4_DETECTORNAME = "Detector 1"
_V4_TTLDETECTOR = None
_V4_DETECTORTYPE = 1
_V4_DETECTORFLAGS = 524545
_V4_DETECTORHV = 687
_V4_DETECTORGAIN = 80
_V4_DETECTORLLD1 = 0.69
_V4_DETECTORWW1 = 1.176
_V4_DETECTORLLD2 = 0
_V4_DETECTORWW2 = 0
_V4_DETECTORPS = 0
_V4_DETECTORDT = 0
_V4_DETECTORPILEUPTIME = 0
_V4_COUNTERS_MASK = 1
_V4_DRIVES_MASK = 0
_V4_ENCODERS_MASK = 0
_2THETACOUNTS = 1
; 2THETA  Cnt1_D1
  40.0000        526
  40.4000        551
  40.8000        473
  41.2000        505
  41.6000        530
  42.0000        534
  42.4000        531
  42.8000        551
  43.2000        534
  43.6000        549
  44.0000        517
  44.4000        526
  44.8000        430
  45.2000        521
  45.6000        493
  46.0000        505
  46.4000        525
  46.8000        529
  47.2000        544
  47.6000        510
  48.0000        542
  48.4000        508
  48.8000        541
  49.2000        587
  49.6000        577
  50.0000        584
  50.4000        558
  50.8000        542
  51.2000        654
  51.6000       1479
  52.0000       2657
  52.4000       2221
  52.8000        863
  53.2000        570
  53.6000        582
  54.0000        549
  54.4000        513
  54.8000        516
  55.2000        523
  55.6000        544
  56.0000        505
  56.4000        525
  56.8000        554
  57.2000        516
  57.6000        478
  58.0000        556
  58.4000        481
  58.8000        532
  59.2000        500
  59.6000        521
  60.0000        528
  60.4000        504
  60.8000        518
  61.2000        497
  61.6000        478
  62.0000        483
  62.4000        517
  62.8000        503
  63.2000        490
  63.6000        518
  64.0000        477
  64.4000        541
  64.8000        483
  65.2000        512
  65.6000        493
  66.0000        525
  66.4000        496
  66.8000        557
  67.2000        499
  67.6000        506
  68.0000        554
  68.4000        506
  68.8000        517
  69.2000        491
  69.6000        478
  70.0000        510
  70.4000        534
  70.8000        540
  71.2000        549
  71.6000        481
  72.0000        481
  72.4000        509
  72.8000        505
  73.2000        514
  73.6000        458
  74.0000        495
  74.4000        511
  74.8000        500
  75.2000        503
  75.6000        477
  76.0000        510
  76.4000        603
  76.8000        594
  77.2000        589
  77.6000        527
  78.0000        506
  78.4000        495
  78.8000        517
  79.2000        506
  79.6000        507
  80.0000        494
  80.4000        508
  80.8000        541
  81.2000        495
  81.6000        508
  82.0000        520
  82.4000        466
  82.8000        497
  83.2000        524
  83.6000        484
  84.0000        489
  84.4000        523
  84.8000        534
  85.2000        506
  85.6000        500
  86.0000        491
  86.4000        503
  86.8000        469
  87.2000        480
  87.6000        511
  88.0000        529
  88.4000        467
  88.8000        501
  89.2000        510
  89.6000        493
  90.0000        519
  90.4000        528
  90.8000        459
  91.2000        508
  91.6000        538
  92.0000        448
  92.4000        465
  92.8000        490
  93.2000        487
  93.6000        528
  94.0000        513
  94.4000        520
  94.8000        476
  95.2000        488
  95.6000        491
  96.0000        524
  96.4000        482
  96.8000        520
  97.2000        521
  97.6000        491
  98.0000        539
  98.4000        540
  98.8000        661
  99.2000        794
  99.6000        740
 100.0000        590
 100.4000        561
 100.8000        570
 101.2000        497
 101.6000        511
 102.0000        493
 102.4000        520
 102.8000        544
 103.2000        496
 103.6000        534
 104.0000        506
 104.4000        448
 104.8000        505
 105.2000        495
 105.6000        483
 106.0000        529
 106.4000        455
 106.8000        500
 107.2000        513
 107.6000        485
 108.0000        534
 108.4000        481
 108.8000        504
 109.2000        514
 109.6000        506
 110.0000        505
 110.4000        515
 110.8000        515
 111.2000        516
 111.6000        509
 112.0000        491
 112.4000        506
 112.8000        494
 113.2000        486
 113.6000        492
 114.0000        540
 114.4000        500
 114.8000        441
 115.2000        507
 115.6000        516
 116.0000        513
 116.4000        512
 116.8000        506
 117.2000        508
 117.6000        514
 118.0000        490
 118.4000        471
 118.8000        467
 119.2000        529
 119.6000        503
 120.0000        471
 120.4000        524
 120.8000        481
 121.2000        487
 121.6000        505
[...]
  72.4000        318
  72.8000        356
  73.2000        328
  73.6000        313
  74.0000        335
  74.4000        323
  74.8000        350
  75.2000        325
  75.6000        373
  76.0000        401
  76.4000        382
  76.8000        373
  77.2000        395
  77.6000        384
  78.0000        365
  78.4000        351
  78.8000        344
  79.2000        328
  79.6000        317
  80.0000        305
  80.4000        343
  80.8000        356
  81.2000        334
  81.6000        358
  82.0000        334
  82.4000        342
  82.8000        340
  83.2000        311
  83.6000        347
  84.0000        355
  84.4000        358
  84.8000        344
  85.2000        347
  85.6000        321
  86.0000        384
  86.4000        335
  86.8000        309
  87.2000        368
  87.6000        334
  88.0000        324
  88.4000        379
  88.8000        330
  89.2000        350
  89.6000        338
  90.0000        363
  90.4000        339
  90.8000        335
  91.2000        330
  91.6000        339
  92.0000        385
  92.4000        432
  92.8000        379
  93.2000        312
  93.6000        328
  94.0000        374
  94.4000        359
  94.8000        332
  95.2000        337
  95.6000        306
  96.0000        342
  96.4000        370
  96.8000        325
  97.2000        365
  97.6000        370
  98.0000        448
  98.4000        516
  98.8000        597
  99.2000        634
  99.6000        552
 100.0000        525
 100.4000        416
 100.8000        419
 101.2000        338
 101.6000        378
 102.0000        370
 102.4000        339
 102.8000        379
 103.2000        368
 103.6000        377
 104.0000        345
 104.4000        397
 104.8000        388
 105.2000        339
 105.6000        365
 106.0000        393
 106.4000        347
 106.8000        374
 107.2000        355
 107.6000        373
 108.0000        371
 108.4000        360
 108.8000        390
 109.2000        319
 109.6000        366
 110.0000        367
 110.4000        426
 110.8000        362
 111.2000        374
 111.6000        383
 112.0000        421
 112.4000        379
 112.8000        349
 113.2000        366
 113.6000        382
 114.0000        380
 114.4000        353
 114.8000        402
 115.2000        387
 115.6000        421
 116.0000        402
 116.4000        385
 116.8000        382
 117.2000        394
 117.6000        424
 118.0000        379
 118.4000        388
 118.8000        363
 119.2000        381
 119.6000        401
 120.0000        377
 120.4000        370
 120.8000        415
 121.2000        384
 121.6000        367
 122.0000        417
 122.4000        464
 122.8000        489
 123.2000        513
 123.6000        482
 124.0000        429
 124.4000        441
 124.8000        391
 125.2000        397
 125.6000        424
 126.0000        411
 126.4000        374
 126.8000        434
 127.2000        435
 127.6000        384
 128.0000        398
 128.4000        378
 128.8000        403
 129.2000        375
 129.6000        389
 130.0000        405

; Data for range 53
_DRIVE = COUPLED
_STEPTIME = 0.2
_STEPSIZE = 0.1
_STEPMODE = C
_START = 40
_THETA = 20
_2THETA = 40
_KHI = 80
_PHI = 0
_X = 25
_Y = 0
_Z = 0
_DETECTOR = 1
; Detector type : Scintillation counter
_HV = 687
_GAIN = 80
_LLD = 0.69
_ULD = 1.866
_DETECTORSLIT = unkn
_AUX1 = 0
_AUX2 = 0
_AUX3 = 0
_TIMESTARTED = 1.03e+004
_TEMP_RATE = -1
_TEMP_DELAY = -1
_KV = 35
_MA = 40
_RANGE_WL = 1.78897
_3DPLANE = 0
_V4_ADDITIONALDETECTOR = 0
_V4_D8_DIBNUM = 1
_V4_DETECTORNAME = "Detector 1"
_V4_TTLDETECTOR = None
_V4_DETECTORTYPE = 1
_V4_DETECTORFLAGS = 524545
_V4_DETECTORHV = 687
_V4_DETECTORGAIN = 80
_V4_DETECTORLLD1 = 0.69
_V4_DETECTORWW1 = 1.176
_V4_DETECTORLLD2 = 0
_V4_DETECTORWW2 = 0
_V4_DETECTORPS = 0
_V4_DETECTORDT = 0
_V4_DETECTORPILEUPTIME = 0
_V4_COUNTERS_MASK = 1
_V4_DRIVES_MASK = 0
_V4_ENCODERS_MASK = 0
_2THETACOUNTS = 1
; 2THETA  Cnt1_D1
  40.0000        154
  40.4000        144
  40.8000        167
  41.2000        149
  41.6000        155
  42.0000        160
  42.4000        162
  42.8000        258
  43.2000        247
  43.6000        245
  44.0000        203
  44.4000        191
  44.8000        166
  45.2000        164
  45.6000        194
  46.0000        176
  46.4000        159
  46.8000        166
  47.2000        170
  47.6000        191
  48.0000        181
  48.4000        180
  48.8000        207
  49.2000        177
  49.6000        176
  50.0000        228
  50.4000        216
  50.8000        242
  51.2000        231
  51.6000        417
  52.0000        674
  52.4000        890
  52.8000        749
  53.2000        426
  53.6000        262
  54.0000        200
  54.4000        196
  54.8000        196
  55.2000        191
  55.6000        194
  56.0000        193
  56.4000        200
  56.8000        183
  57.2000        181
  57.6000        217
  58.0000        212
  58.4000        207
  58.8000        192
  59.2000        193
  59.6000        197
  60.0000        218
  60.4000        183
  60.8000        202
  61.2000        210
  61.6000        221
  62.0000        193
  62.4000        232
  62.8000        188
  63.2000        197
  63.6000        202
  64.0000        210
  64.4000        214
  64.8000        217
  65.2000        249
  65.6000        211
  66.0000        224
  66.4000        217
  66.8000        207
  67.2000        209
  67.6000        226
  68.0000        229
  68.4000        208
  68.8000        233
  69.2000        220
  69.6000        246
  70.0000        225
  70.4000        254
  70.8000        222
  71.2000        219
  71.6000        237
  72.0000        260
  72.4000        243
  72.8000        230
  73.2000        258
  73.6000        237
  74.0000        263
  74.4000        221
  74.8000        231
  75.2000        265
  75.6000        236
  76.0000        255
  76.4000        283
  76.8000        277
  77.2000        269
  77.6000        266
  78.0000        225
  78.4000        257
  78.8000        247
  79.2000        248
  79.6000        255
  80.0000        235
  80.4000        243
  80.8000        238
  81.2000        225
  81.6000        266
  82.0000        277
  82.4000        267
  82.8000        230
  83.2000        256
  83.6000        243
  84.0000        245
  84.4000        269
  84.8000        264
  85.2000        267
  85.6000        268
  86.0000        252
  86.4000        257
  86.8000        263
  87.2000        275
  87.6000        259
  88.0000        294
  88.4000        266
  88.8000        244
  89.2000        267
  89.6000        261
  90.0000        289
  90.4000        285
  90.8000        278
  91.2000        290
  91.6000        299
  92.0000        287
  92.4000        263
  92.8000        282
  93.2000        276
  93.6000        264
  94.0000        285
  94.4000        271
  94.8000        301
  95.2000        269
  95.6000        276
  96.0000        294
  96.4000        289
  96.8000        323
  97.2000        308
  97.6000        308
  98.0000        328
  98.4000        421
  98.8000        447
  99.2000        573
  99.6000        524
 100.0000        470
 100.4000        378
 100.8000        349
 101.2000        322
 101.6000        298
 102.0000        296
 102.4000        300
 102.8000        341
 103.2000        322
 103.6000        306
 104.0000        295
 104.4000        312
 104.8000        351
 105.2000        330
 105.6000        321
 106.0000        329
 106.4000        314
 106.8000        332
 107.2000        335
 107.6000        347
 108.0000        369
 108.4000        354
 108.8000        342
 109.2000        358
 109.6000        352
 110.0000        345
 110.4000        356
 110.8000        373
 111.2000        347
 111.6000        338
 112.0000        377
 112.4000        374
 112.8000        369
 113.2000        367
 113.6000        379
 114.0000        375
 114.4000        367
 114.8000        370
 115.2000        361
 115.6000        346
 116.0000        331
 116.4000        380
 116.8000        365
 117.2000        382
 117.6000        348
 118.0000        359
 118.4000        381
 118.8000        350
 119.2000        361
 119.6000        391
 120.0000        394
 120.4000        404
 120.8000        365
 121.2000        348
 121.6000        386
 122.0000        433
 122.4000        435
 122.8000        481
 123.2000        512
 123.6000        494
 124.0000        481
 124.4000        443
 124.8000        427
 125.2000        365
 125.6000        396
 126.0000        421
 126.4000        395
 126.8000        391
 127.2000        392
 127.6000        370
 128.0000        387
 128.4000        393
 128.8000        372
 129.2000        417
 129.6000        369
 130.0000        371