File: exp_dat/old/exp_2013_11_11/16pct_00L.uxd
; (content of file C:\DIFFDAT1\GIFT\MDL\Seawoong Lee\20131104_MV8\equal_area_maxkhi080_n8_2th40_130_x00y00_0L.raw)
_FILEVERSION = 3
_SAMPLE =
_+SAMPLE =
_SITE = Korea
_USER = Admin
_GONIOMETER_CODE = 20
; Goniometer : D8 theta/2theta, stage : Unknown
_SAMPLE_CHANGER_CODE = 0
_ATTACHMENTS_CODE = 0
_GONIOMETER_RADIUS = 300
_FIXED_DIVSLIT = 1
_FIXED_SAMPLESLIT = 0
_SOLLER_SLITS = 2
_FIXED_DETSLIT = 0.1
_MONOCHROMATOR = 0
; Incident beam monochromator : None
_SOLLER_SLITS_2 = 2
_THIN_FILM = N
_BETA_FILTER = Y
_FIXED_ANTISLIT = 0.6
_ANALYZER_CODE = 0
; Received beam analyzer : None
_DATEMEASURED = "07-Nov-2013 00:55:51"
_WL_UNIT = A
_WL1 = 1.78897
_WL2 = 1.79285
_WL3 = 1.62079
_WLRATIO = 0.5
_ANODE = Co
_V4_INF_CREATOR = XRDWizard
_V4_INF_CREATOR_VERSION = V2.9.0.22
_V4_INF_WIZARD_VERSION = V2.9.0.22
_V4_INF_WIZARD_ADDINS = V2.9.0.22
_V4_INF_WIZARD_DOCTYPE = XRD
_V4_INF_OSUSER = Postech
_V4_INF_USER = Admin
_V4_INF_SITE = Korea

; Data for range 1
_DRIVE = COUPLED
_STEPTIME = 0.2
_STEPSIZE = 0.1
_STEPMODE = C
_START = 40
_THETA = 20
_2THETA = 40
_KHI = 0
_PHI = 0
_X = 0
_Y = 0
_Z = 0
_DETECTOR = 1
; Detector type : Scintillation counter
_HV = 687
_GAIN = 80
_LLD = 0.69
_ULD = 1.866
_DETECTORSLIT = unkn
_AUX1 = 0
_AUX2 = 0
_AUX3 = 0
_TIMESTARTED = 28
_TEMP_RATE = -1
_TEMP_DELAY = -1
_KV = 35
_MA = 40
_RANGE_WL = 1.78897
_3DPLANE = 0
_V4_ADDITIONALDETECTOR = 0
_V4_D8_DIBNUM = 1
_V4_DETECTORNAME = "Detector 1"
_V4_TTLDETECTOR = None
_V4_DETECTORTYPE = 1
_V4_DETECTORFLAGS = 524545
_V4_DETECTORHV = 687
_V4_DETECTORGAIN = 80
_V4_DETECTORLLD1 = 0.69
_V4_DETECTORWW1 = 1.176
_V4_DETECTORLLD2 = 0
_V4_DETECTORWW2 = 0
_V4_DETECTORPS = 0
_V4_DETECTORDT = 0
_V4_DETECTORPILEUPTIME = 0
_V4_COUNTERS_MASK = 1
_V4_DRIVES_MASK = 0
_V4_ENCODERS_MASK = 0
_2THETACOUNTS = 1
; 2THETA  Cnt1_D1
  40.0000        471
  40.4000        495
  40.8000        419
  41.2000        449
  41.6000        441
  42.0000        470
  42.4000        474
  42.8000        434
  43.2000        487
  43.6000        477
  44.0000        478
  44.4000        505
  44.8000        502
  45.2000        471
  45.6000        464
  46.0000        490
  46.4000        489
  46.8000        479
  47.2000        478
  47.6000        467
  48.0000        497
  48.4000        501
  48.8000        472
  49.2000        492
  49.6000        484
  50.0000        533
  50.4000        487
  50.8000        525
  51.2000        580
  51.6000        663
  52.0000       1263
  52.4000       1113
  52.8000        578
  53.2000        528
  53.6000        518
  54.0000        507
  54.4000        508
  54.8000        533
  55.2000        507
  55.6000        553
  56.0000        517
  56.4000        517
  56.8000        502
  57.2000        536
  57.6000        513
  58.0000        499
  58.4000        538
  58.8000        512
  59.2000        543
  59.6000        553
  60.0000        476
  60.4000        472
  60.8000        539
  61.2000        534
  61.6000        520
  62.0000        493
  62.4000        513
  62.8000        526
  63.2000        563
  63.6000        495
  64.0000        492
  64.4000        519
  64.8000        511
  65.2000        486
  65.6000        523
  66.0000        542
  66.4000        480
  66.8000        485
  67.2000        515
  67.6000        518
  68.0000        510
  68.4000        459
  68.8000        534
  69.2000        458
  69.6000        468
  70.0000        534
  70.4000        523
  70.8000        485
  71.2000        558
  71.6000        492
  72.0000        519
  72.4000        509
  72.8000        482
  73.2000        502
  73.6000        515
  74.0000        534
  74.4000        547
  74.8000        511
  75.2000        505
  75.6000        531
  76.0000        537
  76.4000        734
  76.8000        974
  77.2000        861
  77.6000        634
  78.0000        582
  78.4000        555
  78.8000        545
  79.2000        532
  79.6000        524
  80.0000        505
  80.4000        524
  80.8000        523
  81.2000        489
  81.6000        477
  82.0000        529
  82.4000        523
  82.8000        541
  83.2000        542
  83.6000        553
  84.0000        522
  84.4000        511
  84.8000        511
  85.2000        498
  85.6000        528
  86.0000        488
  86.4000        514
  86.8000        540
  87.2000        487
  87.6000        510
  88.0000        534
  88.4000        502
  88.8000        566
  89.2000        554
  89.6000        543
  90.0000        576
  90.4000        546
  90.8000        541
  91.2000        525
  91.6000        547
  92.0000        512
  92.4000        465
  92.8000        535
  93.2000        481
  93.6000        490
  94.0000        555
  94.4000        523
  94.8000        524
  95.2000        539
  95.6000        549
  96.0000        536
  96.4000        520
  96.8000        540
  97.2000        522
  97.6000        530
  98.0000        610
  98.4000        627
  98.8000        973
  99.2000       1505
  99.6000       1381
 100.0000        777
 100.4000        589
 100.8000        556
 101.2000        541
 101.6000        511
 102.0000        479
 102.4000        503
 102.8000        519
 103.2000        507
 103.6000        553
 104.0000        522
 104.4000        535
 104.8000        475
 105.2000        510
 105.6000        481
 106.0000        507
 106.4000        503
 106.8000        553
 107.2000        516
 107.6000        505
 108.0000        565
 108.4000        499
 108.8000        540
 109.2000        503
 109.6000        528
 110.0000        510
 110.4000        521
 110.8000        509
 111.2000        589
 111.6000        554
 112.0000        516
 112.4000        542
 112.8000        526
 113.2000        504
 113.6000        514
 114.0000        538
 114.4000        533
 114.8000        549
 115.2000        487
 115.6000        537
 116.0000        512
 116.4000        518
 116.8000        462
 117.2000        558
 117.6000        496
 118.0000        569
 118.4000        476
 118.8000        514
 119.2000        490
 119.6000        491
 120.0000        514
 120.4000        522
 120.8000        502
 121.2000        538
 121.6000        523
 122.0000        506
 122.4000        554
 122.8000        549
 123.2000        584
 123.6000        586
 124.0000        554
 124.4000        524
 124.8000        519
 125.2000        473
 125.6000        514
 126.0000        530
 126.4000        501
 126.8000        490
 127.2000        483
 127.6000        508
 128.0000        522
 128.4000        502
 128.8000        513
 129.2000        516
 129.6000        523
 130.0000        549

; Data for range 2
_DRIVE = COUPLED
_STEPTIME = 0.2
_STEPSIZE = 0.1
_STEPMODE = C
_START = 40
_THETA = 20
_2THETA = 40
_KHI = 10.5
_PHI = 60
_X = 0
_Y = 0
_Z = 0
_DETECTOR = 1
; Detector type : Scintillation counter
_HV = 687
_GAIN = 80
_LLD = 0.69
_ULD = 1.866
_DETECTORSLIT = unkn
_AUX1 = 0
_AUX2 = 0
_AUX3 = 0
_TIMESTARTED = 225
_TEMP_RATE = -1
_TEMP_DELAY = -1
_KV = 35
_MA = 40
_RANGE_WL = 1.78897
_3DPLANE = 0
_V4_ADDITIONALDETECTOR = 0
_V4_D8_DIBNUM = 1
_V4_DETECTORNAME = "Detector 1"
_V4_TTLDETECTOR = None
_V4_DETECTORTYPE = 1
_V4_DETECTORFLAGS = 524545
_V4_DETECTORHV = 687
_V4_DETECTORGAIN = 80
_V4_DETECTORLLD1 = 0.69
_V4_DETECTORWW1 = 1.176
_V4_DETECTORLLD2 = 0
_V4_DETECTORWW2 = 0
_V4_DETECTORPS = 0
_V4_DETECTORDT = 0
_V4_DETECTORPILEUPTIME = 0
_V4_COUNTERS_MASK = 1
_V4_DRIVES_MASK = 0
_V4_ENCODERS_MASK = 0
_2THETACOUNTS = 1
; 2THETA  Cnt1_D1
  40.0000        499
  40.4000        504
  40.8000        546
  41.2000        569
  41.6000        505
  42.0000        549
  42.4000        501
  42.8000        522
  43.2000        502
  43.6000        468
  44.0000        535
  44.4000        548
  44.8000        556
  45.2000        530
  45.6000        489
  46.0000        510
  46.4000        518
  46.8000        534
  47.2000        535
  47.6000        520
  48.0000        533
  48.4000        516
  48.8000        532
  49.2000        526
  49.6000        556
  50.0000        535
  50.4000        537
  50.8000        558
  51.2000        651
  51.6000        829
  52.0000       1423
  52.4000       1444
  52.8000        666
  53.2000        568
  53.6000        506
  54.0000        545
  54.4000        548
  54.8000        501
  55.2000        515
  55.6000        509
  56.0000        497
  56.4000        549
  56.8000        487
  57.2000        493
  57.6000        500
  58.0000        502
  58.4000        541
  58.8000        538
  59.2000        513
  59.6000        527
  60.0000        557
  60.4000        520
  60.8000        503
  61.2000        478
  61.6000        529
  62.0000        521
  62.4000        507
  62.8000        498
  63.2000        516
  63.6000        515
  64.0000        496
  64.4000        534
  64.8000        505
  65.2000        492
  65.6000        560
  66.0000        486
  66.4000        507
  66.8000        518
  67.2000        487
  67.6000        507
  68.0000        533
  68.4000        529
  68.8000        534
  69.2000        510
  69.6000        495
  70.0000        534
  70.4000        508
  70.8000        503
  71.2000        482
  71.6000        530
  72.0000        521
  72.4000        513
  72.8000        531
  73.2000        500
  73.6000        529
  74.0000        480
  74.4000        482
  74.8000        510
  75.2000        488
  75.6000        510
  76.0000        510
  76.4000        623
  76.8000        716
  77.2000        660
  77.6000        566
  78.0000        569
  78.4000        483
  78.8000        529
  79.2000        515
  79.6000        497
  80.0000        512
  80.4000        521
  80.8000        503
  81.2000        512
  81.6000        519
  82.0000        508
  82.4000        521
  82.8000        528
  83.2000        481
  83.6000        499
  84.0000        535
  84.4000        505
  84.8000        520
  85.2000        504
  85.6000        492
  86.0000        531
  86.4000        517
  86.8000        515
  87.2000        480
  87.6000        515
  88.0000        484
  88.4000        491
  88.8000        537
  89.2000        539
  89.6000        508
  90.0000        519
  90.4000        503
  90.8000        570
  91.2000        532
  91.6000        505
  92.0000        527
  92.4000        500
  92.8000        548
  93.2000        512
  93.6000        504
  94.0000        522
  94.4000        476
  94.8000        530
  95.2000        528
  95.6000        512
  96.0000        495
  96.4000        512
  96.8000        490
  97.2000        530
  97.6000        522
  98.0000        552
  98.4000        595
  98.8000        881
  99.2000       1112
  99.6000       1046
 100.0000        666
 100.4000        537
 100.8000        534
 101.2000        500
 101.6000        541
 102.0000        516
 102.4000        533
 102.8000        546
 103.2000        545
 103.6000        531
 104.0000        458
 104.4000        483
 104.8000        530
 105.2000        518
 105.6000        519
 106.0000        491
 106.4000        525
 106.8000        502
 107.2000        501
 107.6000        515
 108.0000        494
 108.4000        515
 108.8000        519
 109.2000        513
 109.6000        547
 110.0000        538
 110.4000        535
 110.8000        532
 111.2000        552
 111.6000        545
 112.0000        516
 112.4000        543
 112.8000        544
 113.2000        527
 113.6000        527
 114.0000        506
 114.4000        495
 114.8000        505
 115.2000        470
 115.6000        520
 116.0000        519
 116.4000        567
 116.8000        516
 117.2000        490
 117.6000        517
 118.0000        515
 118.4000        533
 118.8000        492
 119.2000        485
 119.6000        535
 120.0000        493
 120.4000        477
 120.8000        511
 121.2000        537
 121.6000        515
 122.0000        501
 122.4000        522
 122.8000        556
 123.2000        566
 123.6000        624
 124.0000        579
 124.4000        520
 124.8000        538
 125.2000        525
 125.6000        506
 126.0000        505
 126.4000        556
 126.8000        475
 127.2000        531
 127.6000        508
 128.0000        505
 128.4000        514
 128.8000        504
 129.2000        523
 129.6000        495
 130.0000        524

; Data for range 3
_DRIVE = COUPLED
_STEPTIME = 0.2
_STEPSIZE = 0.1
_STEPMODE = C
_START = 40
_THETA = 20
_2THETA = 40
_KHI = 18.3
_PHI = 90
_X = 0
_Y = 0
_Z = 0
_DETECTOR = 1
; Detector type : Scintillation counter
_HV = 687
_GAIN = 80
_LLD = 0.69
_ULD = 1.866
_DETECTORSLIT = unkn
_AUX1 = 0
_AUX2 = 0
_AUX3 = 0
_TIMESTARTED = 422
_TEMP_RATE = -1
_TEMP_DELAY = -1
_KV = 35
_MA = 40
_RANGE_WL = 1.78897
_3DPLANE = 0
_V4_ADDITIONALDETECTOR = 0
_V4_D8_DIBNUM = 1
_V4_DETECTORNAME = "Detector 1"
_V4_TTLDETECTOR = None
_V4_DETECTORTYPE = 1
_V4_DETECTORFLAGS = 524545
_V4_DETECTORHV = 687
_V4_DETECTORGAIN = 80
_V4_DETECTORLLD1 = 0.69
_V4_DETECTORWW1 = 1.176
_V4_DETECTORLLD2 = 0
_V4_DETECTORWW2 = 0
_V4_DETECTORPS = 0
_V4_DETECTORDT = 0
_V4_DETECTORPILEUPTIME = 0
_V4_COUNTERS_MASK = 1
_V4_DRIVES_MASK = 0
_V4_ENCODERS_MASK = 0
_2THETACOUNTS = 1
; 2THETA  Cnt1_D1
  40.0000        537
  40.4000        507
  40.8000        557
  41.2000        524
  41.6000        501
  42.0000        535
  42.4000        520
  42.8000        561
  43.2000        523
  43.6000        547
  44.0000        533
  44.4000        548
  44.8000        548
  45.2000        567
  45.6000        513
  46.0000        570
  46.4000        518
  46.8000        560
  47.2000        506
  47.6000        529
  48.0000        519
  48.4000        578
  48.8000        542
  49.2000        543
  49.6000        545
  50.0000        574
  50.4000        571
  50.8000        751
  51.2000        816
  51.6000       1445
  52.0000       2670
  52.4000       2372
  52.8000        851
  53.2000        592
  53.6000        566
  54.0000        571
  54.4000        512
  54.8000        577
  55.2000        583
  55.6000        539
  56.0000        523
  56.4000        496
  56.8000        497
  57.2000        527
  57.6000        502
  58.0000        561
  58.4000        530
  58.8000        530
  59.2000        588
  59.6000        604
  60.0000        528
  60.4000        547
  60.8000        521
  61.2000        548
  61.6000        491
  62.0000        542
  62.4000        541
  62.8000        516
  63.2000        513
  63.6000        489
  64.0000        508
  64.4000        549
  64.8000        572
  65.2000        469
  65.6000        545
  66.0000        513
  66.4000        500
  66.8000        525
  67.2000        496
  67.6000        494
  68.0000        534
  68.4000        532
  68.8000        532
  69.2000        492
  69.6000        551
  70.0000        453
  70.4000        485
  70.8000        481
  71.2000        503
  71.6000        516
  72.0000        519
  72.4000        520
  72.8000        479
  73.2000        509
  73.6000        514
  74.0000        486
  74.4000        486
  74.8000        526
  75.2000        486
  75.6000        508
  76.0000        542
  76.4000        565
  76.8000        602
  77.2000        598
  77.6000        536
  78.0000        490
  78.4000        503
  78.8000        513
  79.2000        519
  79.6000        530
  80.0000        525
  80.4000        542
  80.8000        491
  81.2000        503
  81.6000        515
  82.0000        459
  82.4000        520
  82.8000        487
  83.2000        528
  83.6000        549
  84.0000        579
  84.4000        512
  84.8000        504
  85.2000        525
  85.6000        528
  86.0000        488
  86.4000        503
  86.8000        465
  87.2000        502
  87.6000        481
  88.0000        492
  88.4000        542
  88.8000        530
  89.2000        547
  89.6000        523
  90.0000        542
  90.4000        552
  90.8000        484
  91.2000        488
  91.6000        497
  92.0000        496
  92.4000        532
  92.8000        493
  93.2000        501
  93.6000        507
  94.0000        545
  94.4000        555
  94.8000        494
  95.2000        509
  95.6000        500
  96.0000        518
  96.4000        532
  96.8000        534
  97.2000        514
  97.6000        492
  98.0000        535
  98.4000        545
  98.8000        722
  99.2000        936
  99.6000        927
 100.0000        646
 100.4000        605
 100.8000        502
 101.2000        509
 101.6000        482
 102.0000        543
 102.4000        509
 102.8000        504
 103.2000        516
 103.6000        519
 104.0000        483
 104.4000        492
 104.8000        510
 105.2000        480
 105.6000        476
 106.0000        500
 106.4000        510
 106.8000        524
 107.2000        498
 107.6000        496
 108.0000        537
 108.4000        478
 108.8000        531
 109.2000        562
 109.6000        523
 110.0000        568
 110.4000        500
 110.8000        534
 111.2000        564
 111.6000        514
 112.0000        563
 112.4000        528
 112.8000        506
 113.2000        559
 113.6000        479
 114.0000        495
 114.4000        509
 114.8000        492
 115.2000        500
 115.6000        551
 116.0000        538
 116.4000        536
 116.8000        527
 117.2000        530
 117.6000        501
 118.0000        512
 118.4000        485
 118.8000        517
 119.2000        504
 119.6000        519
 120.0000        509
 120.4000        522
 120.8000        511
 121.2000        562
 121.6000        565
[...]
  72.4000        247
  72.8000        252
  73.2000        236
  73.6000        292
  74.0000        263
  74.4000        268
  74.8000        289
  75.2000        318
  75.6000        343
  76.0000        316
  76.4000        343
  76.8000        307
  77.2000        353
  77.6000        322
  78.0000        313
  78.4000        280
  78.8000        268
  79.2000        282
  79.6000        298
  80.0000        290
  80.4000        257
  80.8000        279
  81.2000        285
  81.6000        293
  82.0000        307
  82.4000        266
  82.8000        276
  83.2000        290
  83.6000        312
  84.0000        336
  84.4000        307
  84.8000        281
  85.2000        301
  85.6000        280
  86.0000        321
  86.4000        277
  86.8000        297
  87.2000        277
  87.6000        287
  88.0000        305
  88.4000        311
  88.8000        329
  89.2000        333
  89.6000        329
  90.0000        329
  90.4000        320
  90.8000        309
  91.2000        302
  91.6000        340
  92.0000        347
  92.4000        366
  92.8000        319
  93.2000        341
  93.6000        347
  94.0000        321
  94.4000        316
  94.8000        321
  95.2000        331
  95.6000        342
  96.0000        318
  96.4000        347
  96.8000        295
  97.2000        338
  97.6000        336
  98.0000        349
  98.4000        415
  98.8000        500
  99.2000        581
  99.6000        542
 100.0000        440
 100.4000        382
 100.8000        344
 101.2000        360
 101.6000        308
 102.0000        364
 102.4000        307
 102.8000        343
 103.2000        337
 103.6000        327
 104.0000        344
 104.4000        344
 104.8000        314
 105.2000        331
 105.6000        313
 106.0000        340
 106.4000        364
 106.8000        353
 107.2000        339
 107.6000        327
 108.0000        320
 108.4000        346
 108.8000        358
 109.2000        346
 109.6000        335
 110.0000        347
 110.4000        353
 110.8000        367
 111.2000        377
 111.6000        373
 112.0000        354
 112.4000        344
 112.8000        389
 113.2000        340
 113.6000        349
 114.0000        358
 114.4000        360
 114.8000        361
 115.2000        328
 115.6000        344
 116.0000        364
 116.4000        337
 116.8000        379
 117.2000        368
 117.6000        390
 118.0000        378
 118.4000        336
 118.8000        369
 119.2000        377
 119.6000        364
 120.0000        400
 120.4000        357
 120.8000        364
 121.2000        375
 121.6000        360
 122.0000        389
 122.4000        360
 122.8000        442
 123.2000        462
 123.6000        453
 124.0000        423
 124.4000        396
 124.8000        341
 125.2000        380
 125.6000        361
 126.0000        374
 126.4000        388
 126.8000        377
 127.2000        385
 127.6000        389
 128.0000        398
 128.4000        355
 128.8000        370
 129.2000        329
 129.6000        387
 130.0000        369

; Data for range 53
_DRIVE = COUPLED
_STEPTIME = 0.2
_STEPSIZE = 0.1
_STEPMODE = C
_START = 40
_THETA = 20
_2THETA = 40
_KHI = 80
_PHI = 0
_X = 0
_Y = 0
_Z = 0
_DETECTOR = 1
; Detector type : Scintillation counter
_HV = 687
_GAIN = 80
_LLD = 0.69
_ULD = 1.866
_DETECTORSLIT = unkn
_AUX1 = 0
_AUX2 = 0
_AUX3 = 0
_TIMESTARTED = 1.03e+004
_TEMP_RATE = -1
_TEMP_DELAY = -1
_KV = 35
_MA = 40
_RANGE_WL = 1.78897
_3DPLANE = 0
_V4_ADDITIONALDETECTOR = 0
_V4_D8_DIBNUM = 1
_V4_DETECTORNAME = "Detector 1"
_V4_TTLDETECTOR = None
_V4_DETECTORTYPE = 1
_V4_DETECTORFLAGS = 524545
_V4_DETECTORHV = 687
_V4_DETECTORGAIN = 80
_V4_DETECTORLLD1 = 0.69
_V4_DETECTORWW1 = 1.176
_V4_DETECTORLLD2 = 0
_V4_DETECTORWW2 = 0
_V4_DETECTORPS = 0
_V4_DETECTORDT = 0
_V4_DETECTORPILEUPTIME = 0
_V4_COUNTERS_MASK = 1
_V4_DRIVES_MASK = 0
_V4_ENCODERS_MASK = 0
_2THETACOUNTS = 1
; 2THETA  Cnt1_D1
  40.0000        195
  40.4000        163
  40.8000        185
  41.2000        183
  41.6000        174
  42.0000        158
  42.4000        186
  42.8000        270
  43.2000        249
  43.6000        258
  44.0000        212
  44.4000        195
  44.8000        167
  45.2000        176
  45.6000        208
  46.0000        209
  46.4000        176
  46.8000        195
  47.2000        184
  47.6000        213
  48.0000        209
  48.4000        204
  48.8000        215
  49.2000        181
  49.6000        197
  50.0000        227
  50.4000        260
  50.8000        269
  51.2000        304
  51.6000        523
  52.0000        831
  52.4000       1002
  52.8000        828
  53.2000        547
  53.6000        266
  54.0000        227
  54.4000        216
  54.8000        200
  55.2000        232
  55.6000        190
  56.0000        205
  56.4000        182
  56.8000        218
  57.2000        202
  57.6000        182
  58.0000        209
  58.4000        197
  58.8000        228
  59.2000        218
  59.6000        229
  60.0000        234
  60.4000        211
  60.8000        218
  61.2000        189
  61.6000        195
  62.0000        214
  62.4000        211
  62.8000        213
  63.2000        217
  63.6000        226
  64.0000        203
  64.4000        219
  64.8000        216
  65.2000        217
  65.6000        229
  66.0000        240
  66.4000        222
  66.8000        240
  67.2000        232
  67.6000        231
  68.0000        232
  68.4000        226
  68.8000        211
  69.2000        246
  69.6000        229
  70.0000        222
  70.4000        236
  70.8000        221
  71.2000        248
  71.6000        218
  72.0000        229
  72.4000        231
  72.8000        240
  73.2000        251
  73.6000        233
  74.0000        233
  74.4000        236
  74.8000        232
  75.2000        260
  75.6000        266
  76.0000        255
  76.4000        269
  76.8000        312
  77.2000        256
  77.6000        245
  78.0000        236
  78.4000        250
  78.8000        256
  79.2000        258
  79.6000        269
  80.0000        263
  80.4000        242
  80.8000        249
  81.2000        230
  81.6000        247
  82.0000        241
  82.4000        216
  82.8000        279
  83.2000        265
  83.6000        239
  84.0000        266
  84.4000        278
  84.8000        284
  85.2000        249
  85.6000        260
  86.0000        262
  86.4000        221
  86.8000        257
  87.2000        280
  87.6000        238
  88.0000        289
  88.4000        253
  88.8000        272
  89.2000        296
  89.6000        266
  90.0000        282
  90.4000        275
  90.8000        264
  91.2000        291
  91.6000        253
  92.0000        269
  92.4000        264
  92.8000        252
  93.2000        287
  93.6000        269
  94.0000        277
  94.4000        292
  94.8000        296
  95.2000        280
  95.6000        281
  96.0000        295
  96.4000        275
  96.8000        274
  97.2000        302
  97.6000        301
  98.0000        277
  98.4000        339
  98.8000        436
  99.2000        487
  99.6000        461
 100.0000        427
 100.4000        336
 100.8000        316
 101.2000        336
 101.6000        316
 102.0000        314
 102.4000        293
 102.8000        285
 103.2000        314
 103.6000        288
 104.0000        336
 104.4000        330
 104.8000        301
 105.2000        279
 105.6000        310
 106.0000        324
 106.4000        345
 106.8000        325
 107.2000        311
 107.6000        268
 108.0000        308
 108.4000        323
 108.8000        318
 109.2000        336
 109.6000        299
 110.0000        338
 110.4000        314
 110.8000        348
 111.2000        335
 111.6000        357
 112.0000        327
 112.4000        329
 112.8000        356
 113.2000        282
 113.6000        332
 114.0000        321
 114.4000        380
 114.8000        330
 115.2000        353
 115.6000        372
 116.0000        298
 116.4000        345
 116.8000        341
 117.2000        380
 117.6000        378
 118.0000        332
 118.4000        368
 118.8000        350
 119.2000        361
 119.6000        360
 120.0000        370
 120.4000        384
 120.8000        346
 121.2000        384
 121.6000        366
 122.0000        399
 122.4000        433
 122.8000        464
 123.2000        515
 123.6000        472
 124.0000        458
 124.4000        399
 124.8000        394
 125.2000        403
 125.6000        396
 126.0000        419
 126.4000        355
 126.8000        338
 127.2000        356
 127.6000        377
 128.0000        378
 128.4000        378
 128.8000        357
 129.2000        363
 129.6000        373
 130.0000        363