File: exp_dat/old/exp_2013_11_11/17pct_00G.uxd
; (content of file C:\DIFFDAT1\GIFT\MDL\Seawoong Lee\20131104_MV8\equal_area_maxkhi080_n8_2th40_130_x25y-25_0g.raw)
_FILEVERSION = 3
_SAMPLE =
_+SAMPLE =
_SITE = Korea
_USER = Admin
_GONIOMETER_CODE = 20
; Goniometer : D8 theta/2theta, stage : Unknown
_SAMPLE_CHANGER_CODE = 0
_ATTACHMENTS_CODE = 0
_GONIOMETER_RADIUS = 300
_FIXED_DIVSLIT = 1
_FIXED_SAMPLESLIT = 0
_SOLLER_SLITS = 2
_FIXED_DETSLIT = 0.1
_MONOCHROMATOR = 0
; Incident beam monochromator : None
_SOLLER_SLITS_2 = 2
_THIN_FILM = N
_BETA_FILTER = Y
_FIXED_ANTISLIT = 0.6
_ANALYZER_CODE = 0
; Received beam analyzer : None
_DATEMEASURED = "08-Nov-2013 12:53:55"
_WL_UNIT = A
_WL1 = 1.78897
_WL2 = 1.79285
_WL3 = 1.62079
_WLRATIO = 0.5
_ANODE = Co
_V4_INF_CREATOR = XRDWizard
_V4_INF_CREATOR_VERSION = V2.9.0.22
_V4_INF_WIZARD_VERSION = V2.9.0.22
_V4_INF_WIZARD_ADDINS = V2.9.0.22
_V4_INF_WIZARD_DOCTYPE = XRD
_V4_INF_OSUSER = Postech
_V4_INF_USER = Admin
_V4_INF_SITE = Korea

; Data for range 1
_DRIVE = COUPLED
_STEPTIME = 0.2
_STEPSIZE = 0.1
_STEPMODE = C
_START = 40
_THETA = 20
_2THETA = 40
_KHI = 0
_PHI = 0
_X = 25
_Y = -25
_Z = 0
_DETECTOR = 1
; Detector type : Scintillation counter
_HV = 687
_GAIN = 80
_LLD = 0.69
_ULD = 1.866
_DETECTORSLIT = unkn
_AUX1 = 0
_AUX2 = 0
_AUX3 = 0
_TIMESTARTED = 13
_TEMP_RATE = -1
_TEMP_DELAY = -1
_KV = 35
_MA = 40
_RANGE_WL = 1.78897
_3DPLANE = 0
_V4_ADDITIONALDETECTOR = 0
_V4_D8_DIBNUM = 1
_V4_DETECTORNAME = "Detector 1"
_V4_TTLDETECTOR = None
_V4_DETECTORTYPE = 1
_V4_DETECTORFLAGS = 524545
_V4_DETECTORHV = 687
_V4_DETECTORGAIN = 80
_V4_DETECTORLLD1 = 0.69
_V4_DETECTORWW1 = 1.176
_V4_DETECTORLLD2 = 0
_V4_DETECTORWW2 = 0
_V4_DETECTORPS = 0
_V4_DETECTORDT = 0
_V4_DETECTORPILEUPTIME = 0
_V4_COUNTERS_MASK = 1
_V4_DRIVES_MASK = 0
_V4_ENCODERS_MASK = 0
_2THETACOUNTS = 1
; 2THETA  Cnt1_D1
  40.0000        500
  40.4000        494
  40.8000        521
  41.2000        515
  41.6000        500
  42.0000        509
  42.4000        503
  42.8000        533
  43.2000        493
  43.6000        517
  44.0000        543
  44.4000        496
  44.8000        510
  45.2000        471
  45.6000        540
  46.0000        484
  46.4000        551
  46.8000        504
  47.2000        513
  47.6000        475
  48.0000        522
  48.4000        553
  48.8000        494
  49.2000        536
  49.6000        558
  50.0000        489
  50.4000        512
  50.8000        534
  51.2000        545
  51.6000        739
  52.0000       1158
  52.4000       1128
  52.8000        629
  53.2000        577
  53.6000        490
  54.0000        531
  54.4000        537
  54.8000        523
  55.2000        494
  55.6000        522
  56.0000        548
  56.4000        473
  56.8000        514
  57.2000        521
  57.6000        494
  58.0000        485
  58.4000        485
  58.8000        513
  59.2000        483
  59.6000        530
  60.0000        537
  60.4000        541
  60.8000        492
  61.2000        483
  61.6000        517
  62.0000        516
  62.4000        505
  62.8000        509
  63.2000        513
  63.6000        514
  64.0000        478
  64.4000        534
  64.8000        455
  65.2000        489
  65.6000        489
  66.0000        500
  66.4000        545
  66.8000        477
  67.2000        501
  67.6000        494
  68.0000        505
  68.4000        513
  68.8000        516
  69.2000        487
  69.6000        518
  70.0000        561
  70.4000        528
  70.8000        528
  71.2000        450
  71.6000        535
  72.0000        516
  72.4000        508
  72.8000        466
  73.2000        463
  73.6000        490
  74.0000        517
  74.4000        536
  74.8000        516
  75.2000        518
  75.6000        510
  76.0000        676
  76.4000       1020
  76.8000       1340
  77.2000        964
  77.6000        651
  78.0000        542
  78.4000        522
  78.8000        498
  79.2000        562
  79.6000        507
  80.0000        507
  80.4000        485
  80.8000        477
  81.2000        496
  81.6000        487
  82.0000        534
  82.4000        525
  82.8000        560
  83.2000        522
  83.6000        478
  84.0000        514
  84.4000        490
  84.8000        536
  85.2000        494
  85.6000        524
  86.0000        562
  86.4000        480
  86.8000        496
  87.2000        502
  87.6000        518
  88.0000        503
  88.4000        476
  88.8000        493
  89.2000        514
  89.6000        487
  90.0000        520
  90.4000        512
  90.8000        526
  91.2000        516
  91.6000        481
  92.0000        525
  92.4000        512
  92.8000        557
  93.2000        511
  93.6000        539
  94.0000        503
  94.4000        459
  94.8000        493
  95.2000        566
  95.6000        520
  96.0000        508
  96.4000        516
  96.8000        494
  97.2000        494
  97.6000        559
  98.0000        557
  98.4000        725
  98.8000       1297
  99.2000       1649
  99.6000       1307
 100.0000        750
 100.4000        624
 100.8000        557
 101.2000        504
 101.6000        554
 102.0000        518
 102.4000        505
 102.8000        519
 103.2000        564
 103.6000        507
 104.0000        529
 104.4000        521
 104.8000        523
 105.2000        489
 105.6000        545
 106.0000        495
 106.4000        506
 106.8000        494
 107.2000        495
 107.6000        537
 108.0000        529
 108.4000        488
 108.8000        544
 109.2000        503
 109.6000        524
 110.0000        528
 110.4000        531
 110.8000        473
 111.2000        545
 111.6000        552
 112.0000        509
 112.4000        479
 112.8000        556
 113.2000        483
 113.6000        518
 114.0000        516
 114.4000        486
 114.8000        515
 115.2000        504
 115.6000        483
 116.0000        480
 116.4000        463
 116.8000        557
 117.2000        526
 117.6000        501
 118.0000        516
 118.4000        520
 118.8000        518
 119.2000        487
 119.6000        559
 120.0000        520
 120.4000        524
 120.8000        517
 121.2000        504
 121.6000        472
 122.0000        486
 122.4000        512
 122.8000        568
 123.2000        554
 123.6000        574
 124.0000        529
 124.4000        530
 124.8000        466
 125.2000        496
 125.6000        526
 126.0000        478
 126.4000        517
 126.8000        524
 127.2000        475
 127.6000        550
 128.0000        552
 128.4000        522
 128.8000        503
 129.2000        504
 129.6000        538
 130.0000        520

; Data for range 2
_DRIVE = COUPLED
_STEPTIME = 0.2
_STEPSIZE = 0.1
_STEPMODE = C
_START = 40
_THETA = 20
_2THETA = 40
_KHI = 10.5
_PHI = 60
_X = 25
_Y = -25
_Z = 0
_DETECTOR = 1
; Detector type : Scintillation counter
_HV = 687
_GAIN = 80
_LLD = 0.69
_ULD = 1.866
_DETECTORSLIT = unkn
_AUX1 = 0
_AUX2 = 0
_AUX3 = 0
_TIMESTARTED = 210
_TEMP_RATE = -1
_TEMP_DELAY = -1
_KV = 35
_MA = 40
_RANGE_WL = 1.78897
_3DPLANE = 0
_V4_ADDITIONALDETECTOR = 0
_V4_D8_DIBNUM = 1
_V4_DETECTORNAME = "Detector 1"
_V4_TTLDETECTOR = None
_V4_DETECTORTYPE = 1
_V4_DETECTORFLAGS = 524545
_V4_DETECTORHV = 687
_V4_DETECTORGAIN = 80
_V4_DETECTORLLD1 = 0.69
_V4_DETECTORWW1 = 1.176
_V4_DETECTORLLD2 = 0
_V4_DETECTORWW2 = 0
_V4_DETECTORPS = 0
_V4_DETECTORDT = 0
_V4_DETECTORPILEUPTIME = 0
_V4_COUNTERS_MASK = 1
_V4_DRIVES_MASK = 0
_V4_ENCODERS_MASK = 0
_2THETACOUNTS = 1
; 2THETA  Cnt1_D1
  40.0000        497
  40.4000        555
  40.8000        488
  41.2000        548
  41.6000        529
  42.0000        479
  42.4000        516
  42.8000        526
  43.2000        510
  43.6000        520
  44.0000        495
  44.4000        502
  44.8000        517
  45.2000        513
  45.6000        487
  46.0000        492
  46.4000        526
  46.8000        510
  47.2000        489
  47.6000        506
  48.0000        496
  48.4000        521
  48.8000        527
  49.2000        490
  49.6000        486
  50.0000        489
  50.4000        483
  50.8000        497
  51.2000        554
  51.6000        900
  52.0000       1458
  52.4000       1370
  52.8000        644
  53.2000        539
  53.6000        509
  54.0000        532
  54.4000        536
  54.8000        538
  55.2000        491
  55.6000        476
  56.0000        509
  56.4000        478
  56.8000        503
  57.2000        476
  57.6000        509
  58.0000        496
  58.4000        507
  58.8000        470
  59.2000        486
  59.6000        492
  60.0000        500
  60.4000        502
  60.8000        480
  61.2000        485
  61.6000        566
  62.0000        477
  62.4000        549
  62.8000        520
  63.2000        506
  63.6000        487
  64.0000        515
  64.4000        517
  64.8000        489
  65.2000        468
  65.6000        470
  66.0000        511
  66.4000        468
  66.8000        500
  67.2000        487
  67.6000        569
  68.0000        524
  68.4000        499
  68.8000        499
  69.2000        455
  69.6000        497
  70.0000        520
  70.4000        468
  70.8000        478
  71.2000        522
  71.6000        525
  72.0000        440
  72.4000        511
  72.8000        533
  73.2000        475
  73.6000        491
  74.0000        497
  74.4000        547
  74.8000        542
  75.2000        534
  75.6000        468
  76.0000        536
  76.4000        708
  76.8000        750
  77.2000        691
  77.6000        544
  78.0000        537
  78.4000        509
  78.8000        533
  79.2000        503
  79.6000        468
  80.0000        515
  80.4000        510
  80.8000        465
  81.2000        490
  81.6000        523
  82.0000        513
  82.4000        511
  82.8000        574
  83.2000        493
  83.6000        516
  84.0000        497
  84.4000        509
  84.8000        491
  85.2000        465
  85.6000        493
  86.0000        528
  86.4000        492
  86.8000        492
  87.2000        513
  87.6000        523
  88.0000        507
  88.4000        469
  88.8000        504
  89.2000        526
  89.6000        479
  90.0000        481
  90.4000        523
  90.8000        520
  91.2000        488
  91.6000        556
  92.0000        500
  92.4000        531
  92.8000        498
  93.2000        467
  93.6000        490
  94.0000        524
  94.4000        506
  94.8000        528
  95.2000        499
  95.6000        527
  96.0000        511
  96.4000        492
  96.8000        527
  97.2000        519
  97.6000        512
  98.0000        573
  98.4000        611
  98.8000        802
  99.2000        944
  99.6000        859
 100.0000        626
 100.4000        555
 100.8000        498
 101.2000        488
 101.6000        542
 102.0000        428
 102.4000        493
 102.8000        512
 103.2000        498
 103.6000        470
 104.0000        527
 104.4000        504
 104.8000        503
 105.2000        543
 105.6000        487
 106.0000        456
 106.4000        499
 106.8000        483
 107.2000        451
 107.6000        513
 108.0000        489
 108.4000        500
 108.8000        499
 109.2000        444
 109.6000        486
 110.0000        493
 110.4000        506
 110.8000        490
 111.2000        470
 111.6000        558
 112.0000        531
 112.4000        527
 112.8000        499
 113.2000        511
 113.6000        513
 114.0000        539
 114.4000        460
 114.8000        503
 115.2000        465
 115.6000        523
 116.0000        479
 116.4000        496
 116.8000        486
 117.2000        509
 117.6000        463
 118.0000        479
 118.4000        466
 118.8000        485
 119.2000        518
 119.6000        512
 120.0000        505
 120.4000        493
 120.8000        489
 121.2000        536
 121.6000        466
 122.0000        552
 122.4000        520
 122.8000        528
 123.2000        557
 123.6000        587
 124.0000        494
 124.4000        488
 124.8000        523
 125.2000        542
 125.6000        537
 126.0000        481
 126.4000        492
 126.8000        486
 127.2000        479
 127.6000        474
 128.0000        517
 128.4000        497
 128.8000        505
 129.2000        479
 129.6000        466
 130.0000        512

; Data for range 3
_DRIVE = COUPLED
_STEPTIME = 0.2
_STEPSIZE = 0.1
_STEPMODE = C
_START = 40
_THETA = 20
_2THETA = 40
_KHI = 18.3
_PHI = 90
_X = 25
_Y = -25
_Z = 0
_DETECTOR = 1
; Detector type : Scintillation counter
_HV = 687
_GAIN = 80
_LLD = 0.69
_ULD = 1.866
_DETECTORSLIT = unkn
_AUX1 = 0
_AUX2 = 0
_AUX3 = 0
_TIMESTARTED = 407
_TEMP_RATE = -1
_TEMP_DELAY = -1
_KV = 35
_MA = 40
_RANGE_WL = 1.78897
_3DPLANE = 0
_V4_ADDITIONALDETECTOR = 0
_V4_D8_DIBNUM = 1
_V4_DETECTORNAME = "Detector 1"
_V4_TTLDETECTOR = None
_V4_DETECTORTYPE = 1
_V4_DETECTORFLAGS = 524545
_V4_DETECTORHV = 687
_V4_DETECTORGAIN = 80
_V4_DETECTORLLD1 = 0.69
_V4_DETECTORWW1 = 1.176
_V4_DETECTORLLD2 = 0
_V4_DETECTORWW2 = 0
_V4_DETECTORPS = 0
_V4_DETECTORDT = 0
_V4_DETECTORPILEUPTIME = 0
_V4_COUNTERS_MASK = 1
_V4_DRIVES_MASK = 0
_V4_ENCODERS_MASK = 0
_2THETACOUNTS = 1
; 2THETA  Cnt1_D1
  40.0000        478
  40.4000        510
  40.8000        474
  41.2000        509
  41.6000        477
  42.0000        538
  42.4000        503
  42.8000        514
  43.2000        483
  43.6000        484
  44.0000        476
  44.4000        488
  44.8000        516
  45.2000        504
  45.6000        496
  46.0000        503
  46.4000        554
  46.8000        508
  47.2000        516
  47.6000        529
  48.0000        494
  48.4000        468
  48.8000        475
  49.2000        499
  49.6000        517
  50.0000        495
  50.4000        521
  50.8000        546
  51.2000        606
  51.6000       1578
  52.0000       2624
  52.4000       2186
  52.8000        730
  53.2000        552
  53.6000        499
  54.0000        536
  54.4000        540
  54.8000        520
  55.2000        508
  55.6000        552
  56.0000        532
  56.4000        544
  56.8000        467
  57.2000        537
  57.6000        480
  58.0000        516
  58.4000        464
  58.8000        519
  59.2000        528
  59.6000        535
  60.0000        485
  60.4000        487
  60.8000        497
  61.2000        497
  61.6000        473
  62.0000        490
  62.4000        478
  62.8000        491
  63.2000        470
  63.6000        485
  64.0000        496
  64.4000        495
  64.8000        524
  65.2000        494
  65.6000        481
  66.0000        470
  66.4000        498
  66.8000        515
  67.2000        482
  67.6000        489
  68.0000        498
  68.4000        505
  68.8000        494
  69.2000        524
  69.6000        519
  70.0000        491
  70.4000        547
  70.8000        505
  71.2000        527
  71.6000        481
  72.0000        487
  72.4000        490
  72.8000        487
  73.2000        535
  73.6000        514
  74.0000        503
  74.4000        482
  74.8000        486
  75.2000        479
  75.6000        475
  76.0000        487
  76.4000        553
  76.8000        586
  77.2000        575
  77.6000        525
  78.0000        513
  78.4000        484
  78.8000        479
  79.2000        513
  79.6000        499
  80.0000        525
  80.4000        472
  80.8000        489
  81.2000        488
  81.6000        470
  82.0000        459
  82.4000        477
  82.8000        491
  83.2000        505
  83.6000        477
  84.0000        469
  84.4000        510
  84.8000        456
  85.2000        506
  85.6000        466
  86.0000        481
  86.4000        496
  86.8000        492
  87.2000        466
  87.6000        522
  88.0000        535
  88.4000        487
  88.8000        538
  89.2000        522
  89.6000        480
  90.0000        515
  90.4000        479
  90.8000        518
  91.2000        510
  91.6000        481
  92.0000        491
  92.4000        512
  92.8000        491
  93.2000        483
  93.6000        490
  94.0000        517
  94.4000        455
  94.8000        507
  95.2000        536
  95.6000        476
  96.0000        480
  96.4000        516
  96.8000        428
  97.2000        538
  97.6000        516
  98.0000        547
  98.4000        563
  98.8000        708
  99.2000        799
  99.6000        806
 100.0000        645
 100.4000        505
 100.8000        496
 101.2000        552
 101.6000        516
 102.0000        459
 102.4000        539
 102.8000        480
 103.2000        482
 103.6000        519
 104.0000        463
 104.4000        526
 104.8000        478
 105.2000        491
 105.6000        481
 106.0000        493
 106.4000        523
 106.8000        478
 107.2000        473
 107.6000        454
 108.0000        550
 108.4000        465
 108.8000        478
 109.2000        478
 109.6000        515
 110.0000        507
 110.4000        486
 110.8000        487
 111.2000        451
 111.6000        480
 112.0000        468
 112.4000        488
 112.8000        502
 113.2000        555
 113.6000        520
 114.0000        470
 114.4000        484
 114.8000        512
 115.2000        486
 115.6000        494
 116.0000        478
 116.4000        464
 116.8000        491
 117.2000        537
 117.6000        537
 118.0000        506
 118.4000        498
 118.8000        529
 119.2000        483
 119.6000        543
 120.0000        504
 120.4000        496
 120.8000        516
 121.2000        521
 121.6000        504
[...]
  72.4000        277
  72.8000        268
  73.2000        229
  73.6000        278
  74.0000        263
  74.4000        262
  74.8000        301
  75.2000        332
  75.6000        301
  76.0000        322
  76.4000        321
  76.8000        348
  77.2000        315
  77.6000        325
  78.0000        298
  78.4000        285
  78.8000        300
  79.2000        306
  79.6000        280
  80.0000        305
  80.4000        285
  80.8000        284
  81.2000        275
  81.6000        271
  82.0000        255
  82.4000        286
  82.8000        289
  83.2000        291
  83.6000        264
  84.0000        286
  84.4000        284
  84.8000        296
  85.2000        291
  85.6000        334
  86.0000        296
  86.4000        287
  86.8000        314
  87.2000        298
  87.6000        301
  88.0000        274
  88.4000        333
  88.8000        298
  89.2000        290
  89.6000        327
  90.0000        297
  90.4000        282
  90.8000        255
  91.2000        259
  91.6000        306
  92.0000        307
  92.4000        329
  92.8000        325
  93.2000        308
  93.6000        317
  94.0000        348
  94.4000        318
  94.8000        282
  95.2000        320
  95.6000        322
  96.0000        312
  96.4000        317
  96.8000        278
  97.2000        327
  97.6000        336
  98.0000        357
  98.4000        415
  98.8000        499
  99.2000        531
  99.6000        535
 100.0000        374
 100.4000        318
 100.8000        331
 101.2000        314
 101.6000        318
 102.0000        321
 102.4000        295
 102.8000        303
 103.2000        308
 103.6000        341
 104.0000        285
 104.4000        316
 104.8000        335
 105.2000        286
 105.6000        309
 106.0000        309
 106.4000        349
 106.8000        325
 107.2000        296
 107.6000        328
 108.0000        310
 108.4000        338
 108.8000        307
 109.2000        344
 109.6000        312
 110.0000        321
 110.4000        319
 110.8000        332
 111.2000        331
 111.6000        315
 112.0000        327
 112.4000        319
 112.8000        315
 113.2000        308
 113.6000        328
 114.0000        332
 114.4000        347
 114.8000        328
 115.2000        331
 115.6000        336
 116.0000        315
 116.4000        315
 116.8000        325
 117.2000        336
 117.6000        330
 118.0000        333
 118.4000        342
 118.8000        337
 119.2000        324
 119.6000        358
 120.0000        372
 120.4000        366
 120.8000        348
 121.2000        367
 121.6000        363
 122.0000        418
 122.4000        402
 122.8000        449
 123.2000        469
 123.6000        428
 124.0000        401
 124.4000        365
 124.8000        333
 125.2000        372
 125.6000        330
 126.0000        338
 126.4000        346
 126.8000        341
 127.2000        374
 127.6000        349
 128.0000        342
 128.4000        354
 128.8000        348
 129.2000        363
 129.6000        372
 130.0000        360

; Data for range 53
_DRIVE = COUPLED
_STEPTIME = 0.2
_STEPSIZE = 0.1
_STEPMODE = C
_START = 40
_THETA = 20
_2THETA = 40
_KHI = 80
_PHI = 0
_X = 25
_Y = -25
_Z = 0
_DETECTOR = 1
; Detector type : Scintillation counter
_HV = 687
_GAIN = 80
_LLD = 0.69
_ULD = 1.866
_DETECTORSLIT = unkn
_AUX1 = 0
_AUX2 = 0
_AUX3 = 0
_TIMESTARTED = 1.028e+004
_TEMP_RATE = -1
_TEMP_DELAY = -1
_KV = 35
_MA = 40
_RANGE_WL = 1.78897
_3DPLANE = 0
_V4_ADDITIONALDETECTOR = 0
_V4_D8_DIBNUM = 1
_V4_DETECTORNAME = "Detector 1"
_V4_TTLDETECTOR = None
_V4_DETECTORTYPE = 1
_V4_DETECTORFLAGS = 524545
_V4_DETECTORHV = 687
_V4_DETECTORGAIN = 80
_V4_DETECTORLLD1 = 0.69
_V4_DETECTORWW1 = 1.176
_V4_DETECTORLLD2 = 0
_V4_DETECTORWW2 = 0
_V4_DETECTORPS = 0
_V4_DETECTORDT = 0
_V4_DETECTORPILEUPTIME = 0
_V4_COUNTERS_MASK = 1
_V4_DRIVES_MASK = 0
_V4_ENCODERS_MASK = 0
_2THETACOUNTS = 1
; 2THETA  Cnt1_D1
  40.0000        185
  40.4000        164
  40.8000        178
  41.2000        193
  41.6000        162
  42.0000        182
  42.4000        179
  42.8000        178
  43.2000        263
  43.6000        250
  44.0000        220
  44.4000        182
  44.8000        167
  45.2000        209
  45.6000        198
  46.0000        181
  46.4000        194
  46.8000        214
  47.2000        184
  47.6000        186
  48.0000        208
  48.4000        209
  48.8000        186
  49.2000        210
  49.6000        204
  50.0000        243
  50.4000        244
  50.8000        272
  51.2000        367
  51.6000        597
  52.0000        899
  52.4000        951
  52.8000        647
  53.2000        413
  53.6000        249
  54.0000        232
  54.4000        242
  54.8000        231
  55.2000        245
  55.6000        225
  56.0000        208
  56.4000        225
  56.8000        223
  57.2000        232
  57.6000        220
  58.0000        236
  58.4000        241
  58.8000        246
  59.2000        218
  59.6000        220
  60.0000        226
  60.4000        225
  60.8000        208
  61.2000        214
  61.6000        239
  62.0000        249
  62.4000        214
  62.8000        249
  63.2000        260
  63.6000        232
  64.0000        232
  64.4000        242
  64.8000        229
  65.2000        246
  65.6000        265
  66.0000        227
  66.4000        239
  66.8000        242
  67.2000        243
  67.6000        243
  68.0000        232
  68.4000        246
  68.8000        257
  69.2000        277
  69.6000        280
  70.0000        248
  70.4000        267
  70.8000        259
  71.2000        248
  71.6000        236
  72.0000        254
  72.4000        270
  72.8000        252
  73.2000        256
  73.6000        244
  74.0000        272
  74.4000        283
  74.8000        281
  75.2000        269
  75.6000        279
  76.0000        290
  76.4000        340
  76.8000        324
  77.2000        329
  77.6000        310
  78.0000        292
  78.4000        268
  78.8000        286
  79.2000        279
  79.6000        281
  80.0000        282
  80.4000        293
  80.8000        288
  81.2000        290
  81.6000        320
  82.0000        304
  82.4000        285
  82.8000        319
  83.2000        258
  83.6000        290
  84.0000        306
  84.4000        317
  84.8000        277
  85.2000        300
  85.6000        295
  86.0000        272
  86.4000        316
  86.8000        284
  87.2000        276
  87.6000        304
  88.0000        319
  88.4000        303
  88.8000        322
  89.2000        331
  89.6000        293
  90.0000        344
  90.4000        308
  90.8000        308
  91.2000        315
  91.6000        317
  92.0000        307
  92.4000        337
  92.8000        335
  93.2000        324
  93.6000        328
  94.0000        312
  94.4000        324
  94.8000        305
  95.2000        293
  95.6000        343
  96.0000        334
  96.4000        305
  96.8000        303
  97.2000        317
  97.6000        342
  98.0000        436
  98.4000        483
  98.8000        555
  99.2000        579
  99.6000        528
 100.0000        509
 100.4000        432
 100.8000        345
 101.2000        358
 101.6000        335
 102.0000        340
 102.4000        344
 102.8000        360
 103.2000        346
 103.6000        337
 104.0000        359
 104.4000        360
 104.8000        346
 105.2000        369
 105.6000        354
 106.0000        374
 106.4000        369
 106.8000        369
 107.2000        344
 107.6000        376
 108.0000        359
 108.4000        354
 108.8000        360
 109.2000        390
 109.6000        393
 110.0000        375
 110.4000        365
 110.8000        366
 111.2000        355
 111.6000        337
 112.0000        376
 112.4000        334
 112.8000        376
 113.2000        378
 113.6000        363
 114.0000        360
 114.4000        370
 114.8000        361
 115.2000        347
 115.6000        367
 116.0000        337
 116.4000        345
 116.8000        352
 117.2000        360
 117.6000        362
 118.0000        399
 118.4000        398
 118.8000        383
 119.2000        378
 119.6000        371
 120.0000        375
 120.4000        377
 120.8000        365
 121.2000        385
 121.6000        359
 122.0000        418
 122.4000        479
 122.8000        486
 123.2000        525
 123.6000        437
 124.0000        440
 124.4000        424
 124.8000        394
 125.2000        362
 125.6000        355
 126.0000        366
 126.4000        360
 126.8000        372
 127.2000        359
 127.6000        337
 128.0000        378
 128.4000        355
 128.8000        392
 129.2000        344
 129.6000        352
 130.0000        351