File: exp_dat/old/exp_2013_11_11/18pct_-10L.uxd
; (content of file C:\DIFFDAT1\GIFT\MDL\Seawoong Lee\20131104_MV8\equal_area_maxkhi080_n8_2th40_130_x00y25_-10L.raw)
_FILEVERSION = 3
_SAMPLE =
_+SAMPLE =
_SITE = Korea
_USER = Admin
_GONIOMETER_CODE = 20
; Goniometer : D8 theta/2theta, stage : Unknown
_SAMPLE_CHANGER_CODE = 0
_ATTACHMENTS_CODE = 0
_GONIOMETER_RADIUS = 300
_FIXED_DIVSLIT = 1
_FIXED_SAMPLESLIT = 0
_SOLLER_SLITS = 2
_FIXED_DETSLIT = 0.1
_MONOCHROMATOR = 0
; Incident beam monochromator : None
_SOLLER_SLITS_2 = 2
_THIN_FILM = N
_BETA_FILTER = Y
_FIXED_ANTISLIT = 0.6
_ANALYZER_CODE = 0
; Received beam analyzer : None
_DATEMEASURED = "07-Nov-2013 03:50:30"
_WL_UNIT = A
_WL1 = 1.78897
_WL2 = 1.79285
_WL3 = 1.62079
_WLRATIO = 0.5
_ANODE = Co
_V4_INF_CREATOR = XRDWizard
_V4_INF_CREATOR_VERSION = V2.9.0.22
_V4_INF_WIZARD_VERSION = V2.9.0.22
_V4_INF_WIZARD_ADDINS = V2.9.0.22
_V4_INF_WIZARD_DOCTYPE = XRD
_V4_INF_OSUSER = Postech
_V4_INF_USER = Admin
_V4_INF_SITE = Korea

; Data for range 1
_DRIVE = COUPLED
_STEPTIME = 0.2
_STEPSIZE = 0.1
_STEPMODE = C
_START = 40
_THETA = 20
_2THETA = 40
_KHI = 0
_PHI = 0
_X = 0
_Y = 25
_Z = 0
_DETECTOR = 1
; Detector type : Scintillation counter
_HV = 687
_GAIN = 80
_LLD = 0.69
_ULD = 1.866
_DETECTORSLIT = unkn
_AUX1 = 0
_AUX2 = 0
_AUX3 = 0
_TIMESTARTED = 28
_TEMP_RATE = -1
_TEMP_DELAY = -1
_KV = 35
_MA = 40
_RANGE_WL = 1.78897
_3DPLANE = 0
_V4_ADDITIONALDETECTOR = 0
_V4_D8_DIBNUM = 1
_V4_DETECTORNAME = "Detector 1"
_V4_TTLDETECTOR = None
_V4_DETECTORTYPE = 1
_V4_DETECTORFLAGS = 524545
_V4_DETECTORHV = 687
_V4_DETECTORGAIN = 80
_V4_DETECTORLLD1 = 0.69
_V4_DETECTORWW1 = 1.176
_V4_DETECTORLLD2 = 0
_V4_DETECTORWW2 = 0
_V4_DETECTORPS = 0
_V4_DETECTORDT = 0
_V4_DETECTORPILEUPTIME = 0
_V4_COUNTERS_MASK = 1
_V4_DRIVES_MASK = 0
_V4_ENCODERS_MASK = 0
_2THETACOUNTS = 1
; 2THETA  Cnt1_D1
  40.0000        513
  40.4000        537
  40.8000        552
  41.2000        544
  41.6000        537
  42.0000        545
  42.4000        536
  42.8000        529
  43.2000        520
  43.6000        528
  44.0000        526
  44.4000        538
  44.8000        535
  45.2000        515
  45.6000        522
  46.0000        561
  46.4000        531
  46.8000        547
  47.2000        528
  47.6000        541
  48.0000        539
  48.4000        524
  48.8000        500
  49.2000        510
  49.6000        503
  50.0000        498
  50.4000        517
  50.8000        550
  51.2000        537
  51.6000        746
  52.0000       1519
  52.4000       1440
  52.8000        712
  53.2000        495
  53.6000        537
  54.0000        563
  54.4000        482
  54.8000        561
  55.2000        570
  55.6000        499
  56.0000        516
  56.4000        534
  56.8000        534
  57.2000        583
  57.6000        535
  58.0000        521
  58.4000        565
  58.8000        507
  59.2000        549
  59.6000        562
  60.0000        532
  60.4000        513
  60.8000        496
  61.2000        527
  61.6000        562
  62.0000        518
  62.4000        530
  62.8000        584
  63.2000        525
  63.6000        518
  64.0000        541
  64.4000        483
  64.8000        528
  65.2000        531
  65.6000        495
  66.0000        520
  66.4000        486
  66.8000        498
  67.2000        498
  67.6000        541
  68.0000        542
  68.4000        518
  68.8000        522
  69.2000        540
  69.6000        510
  70.0000        516
  70.4000        466
  70.8000        531
  71.2000        502
  71.6000        513
  72.0000        515
  72.4000        499
  72.8000        540
  73.2000        508
  73.6000        512
  74.0000        483
  74.4000        504
  74.8000        475
  75.2000        566
  75.6000        548
  76.0000        560
  76.4000        689
  76.8000       1013
  77.2000        970
  77.6000        634
  78.0000        535
  78.4000        492
  78.8000        524
  79.2000        532
  79.6000        536
  80.0000        473
  80.4000        520
  80.8000        470
  81.2000        557
  81.6000        516
  82.0000        485
  82.4000        512
  82.8000        536
  83.2000        530
  83.6000        533
  84.0000        522
  84.4000        517
  84.8000        513
  85.2000        489
  85.6000        526
  86.0000        514
  86.4000        488
  86.8000        512
  87.2000        499
  87.6000        508
  88.0000        512
  88.4000        518
  88.8000        551
  89.2000        536
  89.6000        535
  90.0000        604
  90.4000        524
  90.8000        493
  91.2000        558
  91.6000        495
  92.0000        493
  92.4000        494
  92.8000        577
  93.2000        516
  93.6000        489
  94.0000        493
  94.4000        530
  94.8000        478
  95.2000        497
  95.6000        504
  96.0000        505
  96.4000        500
  96.8000        531
  97.2000        513
  97.6000        547
  98.0000        500
  98.4000        590
  98.8000        918
  99.2000       1356
  99.6000       1346
 100.0000        782
 100.4000        555
 100.8000        532
 101.2000        517
 101.6000        535
 102.0000        502
 102.4000        573
 102.8000        492
 103.2000        550
 103.6000        530
 104.0000        499
 104.4000        563
 104.8000        505
 105.2000        546
 105.6000        538
 106.0000        535
 106.4000        533
 106.8000        548
 107.2000        518
 107.6000        481
 108.0000        542
 108.4000        490
 108.8000        511
 109.2000        525
 109.6000        521
 110.0000        564
 110.4000        529
 110.8000        515
 111.2000        571
 111.6000        526
 112.0000        532
 112.4000        505
 112.8000        526
 113.2000        536
 113.6000        543
 114.0000        542
 114.4000        507
 114.8000        541
 115.2000        503
 115.6000        522
 116.0000        469
 116.4000        505
 116.8000        479
 117.2000        507
 117.6000        508
 118.0000        504
 118.4000        497
 118.8000        536
 119.2000        469
 119.6000        497
 120.0000        524
 120.4000        540
 120.8000        531
 121.2000        548
 121.6000        521
 122.0000        522
 122.4000        553
 122.8000        562
 123.2000        573
 123.6000        614
 124.0000        582
 124.4000        513
 124.8000        492
 125.2000        508
 125.6000        541
 126.0000        532
 126.4000        556
 126.8000        573
 127.2000        492
 127.6000        526
 128.0000        494
 128.4000        526
 128.8000        504
 129.2000        524
 129.6000        518
 130.0000        500

; Data for range 2
_DRIVE = COUPLED
_STEPTIME = 0.2
_STEPSIZE = 0.1
_STEPMODE = C
_START = 40
_THETA = 20
_2THETA = 40
_KHI = 10.5
_PHI = 60
_X = 0
_Y = 25
_Z = 0
_DETECTOR = 1
; Detector type : Scintillation counter
_HV = 687
_GAIN = 80
_LLD = 0.69
_ULD = 1.866
_DETECTORSLIT = unkn
_AUX1 = 0
_AUX2 = 0
_AUX3 = 0
_TIMESTARTED = 225
_TEMP_RATE = -1
_TEMP_DELAY = -1
_KV = 35
_MA = 40
_RANGE_WL = 1.78897
_3DPLANE = 0
_V4_ADDITIONALDETECTOR = 0
_V4_D8_DIBNUM = 1
_V4_DETECTORNAME = "Detector 1"
_V4_TTLDETECTOR = None
_V4_DETECTORTYPE = 1
_V4_DETECTORFLAGS = 524545
_V4_DETECTORHV = 687
_V4_DETECTORGAIN = 80
_V4_DETECTORLLD1 = 0.69
_V4_DETECTORWW1 = 1.176
_V4_DETECTORLLD2 = 0
_V4_DETECTORWW2 = 0
_V4_DETECTORPS = 0
_V4_DETECTORDT = 0
_V4_DETECTORPILEUPTIME = 0
_V4_COUNTERS_MASK = 1
_V4_DRIVES_MASK = 0
_V4_ENCODERS_MASK = 0
_2THETACOUNTS = 1
; 2THETA  Cnt1_D1
  40.0000        524
  40.4000        514
  40.8000        533
  41.2000        492
  41.6000        493
  42.0000        516
  42.4000        502
  42.8000        517
  43.2000        551
  43.6000        506
  44.0000        540
  44.4000        527
  44.8000        473
  45.2000        526
  45.6000        513
  46.0000        546
  46.4000        508
  46.8000        547
  47.2000        512
  47.6000        531
  48.0000        534
  48.4000        522
  48.8000        534
  49.2000        555
  49.6000        535
  50.0000        509
  50.4000        534
  50.8000        634
  51.2000        633
  51.6000        891
  52.0000       1688
  52.4000       1600
  52.8000        713
  53.2000        520
  53.6000        543
  54.0000        510
  54.4000        545
  54.8000        516
  55.2000        517
  55.6000        523
  56.0000        529
  56.4000        548
  56.8000        481
  57.2000        526
  57.6000        524
  58.0000        530
  58.4000        547
  58.8000        506
  59.2000        554
  59.6000        531
  60.0000        509
  60.4000        535
  60.8000        505
  61.2000        519
  61.6000        544
  62.0000        510
  62.4000        499
  62.8000        524
  63.2000        516
  63.6000        476
  64.0000        498
  64.4000        520
  64.8000        519
  65.2000        514
  65.6000        517
  66.0000        520
  66.4000        493
  66.8000        494
  67.2000        474
  67.6000        517
  68.0000        530
  68.4000        520
  68.8000        539
  69.2000        518
  69.6000        486
  70.0000        502
  70.4000        513
  70.8000        543
  71.2000        476
  71.6000        538
  72.0000        527
  72.4000        538
  72.8000        517
  73.2000        486
  73.6000        506
  74.0000        515
  74.4000        544
  74.8000        498
  75.2000        509
  75.6000        571
  76.0000        523
  76.4000        604
  76.8000        739
  77.2000        721
  77.6000        562
  78.0000        515
  78.4000        521
  78.8000        536
  79.2000        533
  79.6000        535
  80.0000        498
  80.4000        542
  80.8000        505
  81.2000        494
  81.6000        517
  82.0000        509
  82.4000        512
  82.8000        527
  83.2000        517
  83.6000        578
  84.0000        505
  84.4000        515
  84.8000        447
  85.2000        515
  85.6000        563
  86.0000        508
  86.4000        488
  86.8000        541
  87.2000        495
  87.6000        472
  88.0000        533
  88.4000        547
  88.8000        512
  89.2000        519
  89.6000        514
  90.0000        513
  90.4000        500
  90.8000        497
  91.2000        514
  91.6000        492
  92.0000        504
  92.4000        506
  92.8000        522
  93.2000        493
  93.6000        510
  94.0000        546
  94.4000        524
  94.8000        485
  95.2000        492
  95.6000        543
  96.0000        496
  96.4000        494
  96.8000        533
  97.2000        551
  97.6000        555
  98.0000        557
  98.4000        560
  98.8000        800
  99.2000       1076
  99.6000       1052
 100.0000        707
 100.4000        584
 100.8000        526
 101.2000        472
 101.6000        507
 102.0000        494
 102.4000        531
 102.8000        481
 103.2000        533
 103.6000        523
 104.0000        518
 104.4000        547
 104.8000        528
 105.2000        532
 105.6000        490
 106.0000        524
 106.4000        513
 106.8000        531
 107.2000        515
 107.6000        477
 108.0000        489
 108.4000        506
 108.8000        518
 109.2000        505
 109.6000        522
 110.0000        498
 110.4000        483
 110.8000        540
 111.2000        476
 111.6000        482
 112.0000        531
 112.4000        511
 112.8000        528
 113.2000        536
 113.6000        513
 114.0000        520
 114.4000        519
 114.8000        524
 115.2000        529
 115.6000        504
 116.0000        524
 116.4000        536
 116.8000        512
 117.2000        547
 117.6000        511
 118.0000        469
 118.4000        556
 118.8000        531
 119.2000        555
 119.6000        493
 120.0000        535
 120.4000        495
 120.8000        475
 121.2000        535
 121.6000        512
 122.0000        573
 122.4000        554
 122.8000        576
 123.2000        629
 123.6000        630
 124.0000        606
 124.4000        574
 124.8000        536
 125.2000        520
 125.6000        506
 126.0000        508
 126.4000        547
 126.8000        522
 127.2000        513
 127.6000        523
 128.0000        521
 128.4000        489
 128.8000        513
 129.2000        536
 129.6000        512
 130.0000        549

; Data for range 3
_DRIVE = COUPLED
_STEPTIME = 0.2
_STEPSIZE = 0.1
_STEPMODE = C
_START = 40
_THETA = 20
_2THETA = 40
_KHI = 18.3
_PHI = 90
_X = 0
_Y = 25
_Z = 0
_DETECTOR = 1
; Detector type : Scintillation counter
_HV = 687
_GAIN = 80
_LLD = 0.69
_ULD = 1.866
_DETECTORSLIT = unkn
_AUX1 = 0
_AUX2 = 0
_AUX3 = 0
_TIMESTARTED = 423
_TEMP_RATE = -1
_TEMP_DELAY = -1
_KV = 35
_MA = 40
_RANGE_WL = 1.78897
_3DPLANE = 0
_V4_ADDITIONALDETECTOR = 0
_V4_D8_DIBNUM = 1
_V4_DETECTORNAME = "Detector 1"
_V4_TTLDETECTOR = None
_V4_DETECTORTYPE = 1
_V4_DETECTORFLAGS = 524545
_V4_DETECTORHV = 687
_V4_DETECTORGAIN = 80
_V4_DETECTORLLD1 = 0.69
_V4_DETECTORWW1 = 1.176
_V4_DETECTORLLD2 = 0
_V4_DETECTORWW2 = 0
_V4_DETECTORPS = 0
_V4_DETECTORDT = 0
_V4_DETECTORPILEUPTIME = 0
_V4_COUNTERS_MASK = 1
_V4_DRIVES_MASK = 0
_V4_ENCODERS_MASK = 0
_2THETACOUNTS = 1
; 2THETA  Cnt1_D1
  40.0000        517
  40.4000        539
  40.8000        477
  41.2000        487
  41.6000        503
  42.0000        502
  42.4000        461
  42.8000        551
  43.2000        447
  43.6000        464
  44.0000        465
  44.4000        494
  44.8000        495
  45.2000        502
  45.6000        506
  46.0000        556
  46.4000        527
  46.8000        503
  47.2000        566
  47.6000        541
  48.0000        474
  48.4000        495
  48.8000        504
  49.2000        557
  49.6000        497
  50.0000        517
  50.4000        575
  50.8000        702
  51.2000        815
  51.6000       1415
  52.0000       2739
  52.4000       2492
  52.8000        856
  53.2000        571
  53.6000        515
  54.0000        552
  54.4000        555
  54.8000        553
  55.2000        575
  55.6000        546
  56.0000        510
  56.4000        539
  56.8000        504
  57.2000        535
  57.6000        517
  58.0000        573
  58.4000        504
  58.8000        552
  59.2000        570
  59.6000        535
  60.0000        498
  60.4000        529
  60.8000        491
  61.2000        523
  61.6000        512
  62.0000        524
  62.4000        550
  62.8000        521
  63.2000        555
  63.6000        514
  64.0000        536
  64.4000        511
  64.8000        527
  65.2000        516
  65.6000        504
  66.0000        514
  66.4000        554
  66.8000        528
  67.2000        560
  67.6000        521
  68.0000        493
  68.4000        518
  68.8000        506
  69.2000        474
  69.6000        537
  70.0000        520
  70.4000        474
  70.8000        534
  71.2000        491
  71.6000        499
  72.0000        533
  72.4000        514
  72.8000        489
  73.2000        476
  73.6000        527
  74.0000        506
  74.4000        553
  74.8000        500
  75.2000        503
  75.6000        530
  76.0000        559
  76.4000        630
  76.8000        628
  77.2000        668
  77.6000        569
  78.0000        489
  78.4000        493
  78.8000        475
  79.2000        523
  79.6000        539
  80.0000        514
  80.4000        504
  80.8000        538
  81.2000        525
  81.6000        497
  82.0000        467
  82.4000        495
  82.8000        521
  83.2000        508
  83.6000        504
  84.0000        505
  84.4000        509
  84.8000        556
  85.2000        473
  85.6000        506
  86.0000        529
  86.4000        568
  86.8000        500
  87.2000        498
  87.6000        520
  88.0000        528
  88.4000        582
  88.8000        531
  89.2000        537
  89.6000        522
  90.0000        484
  90.4000        504
  90.8000        513
  91.2000        504
  91.6000        525
  92.0000        553
  92.4000        470
  92.8000        516
  93.2000        531
  93.6000        506
  94.0000        456
  94.4000        513
  94.8000        487
  95.2000        517
  95.6000        529
  96.0000        506
  96.4000        512
  96.8000        526
  97.2000        554
  97.6000        526
  98.0000        497
  98.4000        548
  98.8000        717
  99.2000       1014
  99.6000        962
 100.0000        662
 100.4000        546
 100.8000        548
 101.2000        508
 101.6000        533
 102.0000        527
 102.4000        534
 102.8000        504
 103.2000        550
 103.6000        512
 104.0000        551
 104.4000        538
 104.8000        488
 105.2000        523
 105.6000        512
 106.0000        536
 106.4000        528
 106.8000        503
 107.2000        469
 107.6000        507
 108.0000        504
 108.4000        516
 108.8000        503
 109.2000        546
 109.6000        518
 110.0000        509
 110.4000        550
 110.8000        551
 111.2000        496
 111.6000        506
 112.0000        551
 112.4000        514
 112.8000        527
 113.2000        505
 113.6000        534
 114.0000        519
 114.4000        483
 114.8000        471
 115.2000        554
 115.6000        491
 116.0000        518
 116.4000        503
 116.8000        476
 117.2000        582
 117.6000        554
 118.0000        476
 118.4000        510
 118.8000        566
 119.2000        500
 119.6000        508
 120.0000        480
 120.4000        562
 120.8000        525
 121.2000        532
 121.6000        538
[...]
  72.4000        293
  72.8000        309
  73.2000        272
  73.6000        296
  74.0000        292
  74.4000        295
  74.8000        293
  75.2000        321
  75.6000        326
  76.0000        289
  76.4000        358
  76.8000        391
  77.2000        414
  77.6000        341
  78.0000        325
  78.4000        300
  78.8000        301
  79.2000        312
  79.6000        306
  80.0000        300
  80.4000        268
  80.8000        274
  81.2000        309
  81.6000        314
  82.0000        279
  82.4000        281
  82.8000        288
  83.2000        317
  83.6000        312
  84.0000        278
  84.4000        321
  84.8000        302
  85.2000        308
  85.6000        306
  86.0000        272
  86.4000        297
  86.8000        283
  87.2000        298
  87.6000        319
  88.0000        310
  88.4000        319
  88.8000        324
  89.2000        292
  89.6000        310
  90.0000        310
  90.4000        304
  90.8000        292
  91.2000        328
  91.6000        361
  92.0000        338
  92.4000        353
  92.8000        307
  93.2000        310
  93.6000        327
  94.0000        310
  94.4000        283
  94.8000        324
  95.2000        349
  95.6000        321
  96.0000        328
  96.4000        321
  96.8000        322
  97.2000        352
  97.6000        310
  98.0000        324
  98.4000        407
  98.8000        466
  99.2000        562
  99.6000        543
 100.0000        490
 100.4000        388
 100.8000        335
 101.2000        326
 101.6000        343
 102.0000        299
 102.4000        330
 102.8000        317
 103.2000        326
 103.6000        336
 104.0000        314
 104.4000        335
 104.8000        354
 105.2000        312
 105.6000        299
 106.0000        344
 106.4000        339
 106.8000        343
 107.2000        328
 107.6000        342
 108.0000        332
 108.4000        316
 108.8000        283
 109.2000        342
 109.6000        326
 110.0000        356
 110.4000        315
 110.8000        350
 111.2000        311
 111.6000        381
 112.0000        366
 112.4000        323
 112.8000        349
 113.2000        357
 113.6000        297
 114.0000        309
 114.4000        312
 114.8000        344
 115.2000        353
 115.6000        356
 116.0000        348
 116.4000        379
 116.8000        333
 117.2000        320
 117.6000        366
 118.0000        320
 118.4000        359
 118.8000        340
 119.2000        360
 119.6000        345
 120.0000        362
 120.4000        341
 120.8000        336
 121.2000        328
 121.6000        380
 122.0000        350
 122.4000        387
 122.8000        420
 123.2000        446
 123.6000        425
 124.0000        349
 124.4000        396
 124.8000        321
 125.2000        352
 125.6000        347
 126.0000        357
 126.4000        388
 126.8000        327
 127.2000        368
 127.6000        387
 128.0000        348
 128.4000        368
 128.8000        368
 129.2000        359
 129.6000        368
 130.0000        333

; Data for range 53
_DRIVE = COUPLED
_STEPTIME = 0.2
_STEPSIZE = 0.1
_STEPMODE = C
_START = 40
_THETA = 20
_2THETA = 40
_KHI = 80
_PHI = 0
_X = 0
_Y = 25
_Z = 0
_DETECTOR = 1
; Detector type : Scintillation counter
_HV = 687
_GAIN = 80
_LLD = 0.69
_ULD = 1.866
_DETECTORSLIT = unkn
_AUX1 = 0
_AUX2 = 0
_AUX3 = 0
_TIMESTARTED = 1.03e+004
_TEMP_RATE = -1
_TEMP_DELAY = -1
_KV = 35
_MA = 40
_RANGE_WL = 1.78897
_3DPLANE = 0
_V4_ADDITIONALDETECTOR = 0
_V4_D8_DIBNUM = 1
_V4_DETECTORNAME = "Detector 1"
_V4_TTLDETECTOR = None
_V4_DETECTORTYPE = 1
_V4_DETECTORFLAGS = 524545
_V4_DETECTORHV = 687
_V4_DETECTORGAIN = 80
_V4_DETECTORLLD1 = 0.69
_V4_DETECTORWW1 = 1.176
_V4_DETECTORLLD2 = 0
_V4_DETECTORWW2 = 0
_V4_DETECTORPS = 0
_V4_DETECTORDT = 0
_V4_DETECTORPILEUPTIME = 0
_V4_COUNTERS_MASK = 1
_V4_DRIVES_MASK = 0
_V4_ENCODERS_MASK = 0
_2THETACOUNTS = 1
; 2THETA  Cnt1_D1
  40.0000        173
  40.4000        191
  40.8000        176
  41.2000        174
  41.6000        192
  42.0000        184
  42.4000        202
  42.8000        253
  43.2000        317
  43.6000        261
  44.0000        251
  44.4000        176
  44.8000        209
  45.2000        185
  45.6000        191
  46.0000        188
  46.4000        203
  46.8000        201
  47.2000        205
  47.6000        211
  48.0000        197
  48.4000        228
  48.8000        203
  49.2000        212
  49.6000        234
  50.0000        242
  50.4000        254
  50.8000        308
  51.2000        351
  51.6000        641
  52.0000        893
  52.4000        914
  52.8000        807
  53.2000        554
  53.6000        272
  54.0000        260
  54.4000        221
  54.8000        255
  55.2000        236
  55.6000        231
  56.0000        260
  56.4000        228
  56.8000        245
  57.2000        236
  57.6000        236
  58.0000        236
  58.4000        249
  58.8000        269
  59.2000        261
  59.6000        267
  60.0000        265
  60.4000        262
  60.8000        250
  61.2000        230
  61.6000        284
  62.0000        247
  62.4000        282
  62.8000        262
  63.2000        250
  63.6000        272
  64.0000        261
  64.4000        277
  64.8000        253
  65.2000        230
  65.6000        273
  66.0000        263
  66.4000        260
  66.8000        265
  67.2000        282
  67.6000        259
  68.0000        275
  68.4000        255
  68.8000        271
  69.2000        307
  69.6000        276
  70.0000        282
  70.4000        303
  70.8000        281
  71.2000        310
  71.6000        275
  72.0000        283
  72.4000        306
  72.8000        297
  73.2000        325
  73.6000        299
  74.0000        308
  74.4000        298
  74.8000        316
  75.2000        299
  75.6000        320
  76.0000        343
  76.4000        348
  76.8000        372
  77.2000        327
  77.6000        351
  78.0000        334
  78.4000        291
  78.8000        316
  79.2000        347
  79.6000        313
  80.0000        314
  80.4000        311
  80.8000        287
  81.2000        322
  81.6000        349
  82.0000        325
  82.4000        313
  82.8000        332
  83.2000        328
  83.6000        313
  84.0000        327
  84.4000        333
  84.8000        344
  85.2000        308
  85.6000        326
  86.0000        335
  86.4000        310
  86.8000        326
  87.2000        344
  87.6000        336
  88.0000        343
  88.4000        340
  88.8000        349
  89.2000        363
  89.6000        359
  90.0000        357
  90.4000        339
  90.8000        342
  91.2000        326
  91.6000        368
  92.0000        337
  92.4000        349
  92.8000        402
  93.2000        328
  93.6000        364
  94.0000        348
  94.4000        329
  94.8000        326
  95.2000        359
  95.6000        362
  96.0000        345
  96.4000        357
  96.8000        337
  97.2000        377
  97.6000        389
  98.0000        350
  98.4000        483
  98.8000        512
  99.2000        621
  99.6000        567
 100.0000        498
 100.4000        440
 100.8000        377
 101.2000        347
 101.6000        374
 102.0000        320
 102.4000        367
 102.8000        368
 103.2000        371
 103.6000        360
 104.0000        365
 104.4000        354
 104.8000        347
 105.2000        351
 105.6000        365
 106.0000        344
 106.4000        348
 106.8000        342
 107.2000        346
 107.6000        372
 108.0000        355
 108.4000        367
 108.8000        324
 109.2000        365
 109.6000        360
 110.0000        369
 110.4000        384
 110.8000        399
 111.2000        396
 111.6000        362
 112.0000        373
 112.4000        376
 112.8000        352
 113.2000        380
 113.6000        391
 114.0000        342
 114.4000        359
 114.8000        369
 115.2000        361
 115.6000        372
 116.0000        366
 116.4000        375
 116.8000        365
 117.2000        351
 117.6000        358
 118.0000        390
 118.4000        374
 118.8000        361
 119.2000        402
 119.6000        322
 120.0000        350
 120.4000        388
 120.8000        352
 121.2000        391
 121.6000        363
 122.0000        429
 122.4000        443
 122.8000        473
 123.2000        489
 123.6000        482
 124.0000        476
 124.4000        428
 124.8000        392
 125.2000        338
 125.6000        344
 126.0000        370
 126.4000        403
 126.8000        355
 127.2000        379
 127.6000        367
 128.0000        353
 128.4000        372
 128.8000        388
 129.2000        392
 129.6000        370
 130.0000        400