File: exp_dat/old/exp_2013_11_11/19pct_-10G.uxd
; (content of file C:\DIFFDAT1\GIFT\MDL\Seawoong Lee\20131104_MV8\equal_area_maxkhi080_n8_2th40_130_x-25y00_-10g.raw)
_FILEVERSION = 3
_SAMPLE =
_+SAMPLE =
_SITE = Korea
_USER = Admin
_GONIOMETER_CODE = 20
; Goniometer : D8 theta/2theta, stage : Unknown
_SAMPLE_CHANGER_CODE = 0
_ATTACHMENTS_CODE = 0
_GONIOMETER_RADIUS = 300
_FIXED_DIVSLIT = 1
_FIXED_SAMPLESLIT = 0
_SOLLER_SLITS = 2
_FIXED_DETSLIT = 0.1
_MONOCHROMATOR = 0
; Incident beam monochromator : None
_SOLLER_SLITS_2 = 2
_THIN_FILM = N
_BETA_FILTER = Y
_FIXED_ANTISLIT = 0.6
_ANALYZER_CODE = 0
; Received beam analyzer : None
_DATEMEASURED = "08-Nov-2013 09:03:27"
_WL_UNIT = A
_WL1 = 1.78897
_WL2 = 1.79285
_WL3 = 1.62079
_WLRATIO = 0.5
_ANODE = Co
_V4_INF_CREATOR = XRDWizard
_V4_INF_CREATOR_VERSION = V2.9.0.22
_V4_INF_WIZARD_VERSION = V2.9.0.22
_V4_INF_WIZARD_ADDINS = V2.9.0.22
_V4_INF_WIZARD_DOCTYPE = XRD
_V4_INF_OSUSER = Postech
_V4_INF_USER = Admin
_V4_INF_SITE = Korea

; Data for range 1
_DRIVE = COUPLED
_STEPTIME = 0.2
_STEPSIZE = 0.1
_STEPMODE = C
_START = 40
_THETA = 20
_2THETA = 40
_KHI = 0
_PHI = 0
_X = -25
_Y = 0
_Z = 0
_DETECTOR = 1
; Detector type : Scintillation counter
_HV = 687
_GAIN = 80
_LLD = 0.69
_ULD = 1.866
_DETECTORSLIT = unkn
_AUX1 = 0
_AUX2 = 0
_AUX3 = 0
_TIMESTARTED = 28
_TEMP_RATE = -1
_TEMP_DELAY = -1
_KV = 35
_MA = 40
_RANGE_WL = 1.78897
_3DPLANE = 0
_V4_ADDITIONALDETECTOR = 0
_V4_D8_DIBNUM = 1
_V4_DETECTORNAME = "Detector 1"
_V4_TTLDETECTOR = None
_V4_DETECTORTYPE = 1
_V4_DETECTORFLAGS = 524545
_V4_DETECTORHV = 687
_V4_DETECTORGAIN = 80
_V4_DETECTORLLD1 = 0.69
_V4_DETECTORWW1 = 1.176
_V4_DETECTORLLD2 = 0
_V4_DETECTORWW2 = 0
_V4_DETECTORPS = 0
_V4_DETECTORDT = 0
_V4_DETECTORPILEUPTIME = 0
_V4_COUNTERS_MASK = 1
_V4_DRIVES_MASK = 0
_V4_ENCODERS_MASK = 0
_2THETACOUNTS = 1
; 2THETA  Cnt1_D1
  40.0000        547
  40.4000        520
  40.8000        573
  41.2000        482
  41.6000        497
  42.0000        577
  42.4000        549
  42.8000        553
  43.2000        519
  43.6000        498
  44.0000        514
  44.4000        499
  44.8000        524
  45.2000        506
  45.6000        537
  46.0000        505
  46.4000        517
  46.8000        520
  47.2000        533
  47.6000        469
  48.0000        528
  48.4000        559
  48.8000        531
  49.2000        483
  49.6000        567
  50.0000        555
  50.4000        493
  50.8000        549
  51.2000        567
  51.6000        759
  52.0000       1167
  52.4000       1158
  52.8000        655
  53.2000        505
  53.6000        517
  54.0000        534
  54.4000        504
  54.8000        523
  55.2000        529
  55.6000        503
  56.0000        499
  56.4000        563
  56.8000        540
  57.2000        552
  57.6000        551
  58.0000        488
  58.4000        532
  58.8000        569
  59.2000        542
  59.6000        515
  60.0000        489
  60.4000        525
  60.8000        556
  61.2000        555
  61.6000        543
  62.0000        505
  62.4000        499
  62.8000        569
  63.2000        538
  63.6000        532
  64.0000        539
  64.4000        514
  64.8000        505
  65.2000        511
  65.6000        573
  66.0000        512
  66.4000        499
  66.8000        523
  67.2000        527
  67.6000        533
  68.0000        517
  68.4000        538
  68.8000        501
  69.2000        510
  69.6000        523
  70.0000        525
  70.4000        551
  70.8000        537
  71.2000        503
  71.6000        475
  72.0000        523
  72.4000        488
  72.8000        486
  73.2000        521
  73.6000        506
  74.0000        548
  74.4000        520
  74.8000        507
  75.2000        516
  75.6000        526
  76.0000        669
  76.4000       1048
  76.8000       1294
  77.2000       1037
  77.6000        651
  78.0000        532
  78.4000        554
  78.8000        516
  79.2000        490
  79.6000        537
  80.0000        502
  80.4000        512
  80.8000        526
  81.2000        508
  81.6000        524
  82.0000        507
  82.4000        465
  82.8000        503
  83.2000        532
  83.6000        503
  84.0000        511
  84.4000        559
  84.8000        529
  85.2000        527
  85.6000        538
  86.0000        523
  86.4000        495
  86.8000        499
  87.2000        477
  87.6000        527
  88.0000        512
  88.4000        529
  88.8000        540
  89.2000        522
  89.6000        545
  90.0000        508
  90.4000        512
  90.8000        485
  91.2000        484
  91.6000        528
  92.0000        516
  92.4000        504
  92.8000        501
  93.2000        506
  93.6000        534
  94.0000        512
  94.4000        538
  94.8000        439
  95.2000        541
  95.6000        541
  96.0000        528
  96.4000        503
  96.8000        525
  97.2000        515
  97.6000        544
  98.0000        567
  98.4000        714
  98.8000       1217
  99.2000       1604
  99.6000       1314
 100.0000        806
 100.4000        602
 100.8000        527
 101.2000        524
 101.6000        513
 102.0000        533
 102.4000        527
 102.8000        521
 103.2000        522
 103.6000        527
 104.0000        543
 104.4000        489
 104.8000        531
 105.2000        487
 105.6000        507
 106.0000        531
 106.4000        504
 106.8000        560
 107.2000        516
 107.6000        542
 108.0000        493
 108.4000        474
 108.8000        534
 109.2000        478
 109.6000        530
 110.0000        527
 110.4000        518
 110.8000        493
 111.2000        509
 111.6000        540
 112.0000        522
 112.4000        510
 112.8000        506
 113.2000        500
 113.6000        493
 114.0000        515
 114.4000        486
 114.8000        496
 115.2000        472
 115.6000        452
 116.0000        537
 116.4000        514
 116.8000        525
 117.2000        501
 117.6000        489
 118.0000        484
 118.4000        523
 118.8000        529
 119.2000        500
 119.6000        511
 120.0000        461
 120.4000        510
 120.8000        545
 121.2000        504
 121.6000        514
 122.0000        474
 122.4000        525
 122.8000        499
 123.2000        558
 123.6000        542
 124.0000        575
 124.4000        511
 124.8000        494
 125.2000        507
 125.6000        504
 126.0000        525
 126.4000        562
 126.8000        543
 127.2000        525
 127.6000        496
 128.0000        511
 128.4000        467
 128.8000        531
 129.2000        514
 129.6000        503
 130.0000        497

; Data for range 2
_DRIVE = COUPLED
_STEPTIME = 0.2
_STEPSIZE = 0.1
_STEPMODE = C
_START = 40
_THETA = 20
_2THETA = 40
_KHI = 10.5
_PHI = 60
_X = -25
_Y = 0
_Z = 0
_DETECTOR = 1
; Detector type : Scintillation counter
_HV = 687
_GAIN = 80
_LLD = 0.69
_ULD = 1.866
_DETECTORSLIT = unkn
_AUX1 = 0
_AUX2 = 0
_AUX3 = 0
_TIMESTARTED = 226
_TEMP_RATE = -1
_TEMP_DELAY = -1
_KV = 35
_MA = 40
_RANGE_WL = 1.78897
_3DPLANE = 0
_V4_ADDITIONALDETECTOR = 0
_V4_D8_DIBNUM = 1
_V4_DETECTORNAME = "Detector 1"
_V4_TTLDETECTOR = None
_V4_DETECTORTYPE = 1
_V4_DETECTORFLAGS = 524545
_V4_DETECTORHV = 687
_V4_DETECTORGAIN = 80
_V4_DETECTORLLD1 = 0.69
_V4_DETECTORWW1 = 1.176
_V4_DETECTORLLD2 = 0
_V4_DETECTORWW2 = 0
_V4_DETECTORPS = 0
_V4_DETECTORDT = 0
_V4_DETECTORPILEUPTIME = 0
_V4_COUNTERS_MASK = 1
_V4_DRIVES_MASK = 0
_V4_ENCODERS_MASK = 0
_2THETACOUNTS = 1
; 2THETA  Cnt1_D1
  40.0000        520
  40.4000        539
  40.8000        519
  41.2000        544
  41.6000        533
  42.0000        546
  42.4000        524
  42.8000        554
  43.2000        503
  43.6000        582
  44.0000        541
  44.4000        517
  44.8000        534
  45.2000        547
  45.6000        505
  46.0000        502
  46.4000        524
  46.8000        512
  47.2000        512
  47.6000        521
  48.0000        575
  48.4000        525
  48.8000        476
  49.2000        522
  49.6000        556
  50.0000        513
  50.4000        493
  50.8000        514
  51.2000        511
  51.6000        859
  52.0000       1424
  52.4000       1361
  52.8000        628
  53.2000        524
  53.6000        531
  54.0000        525
  54.4000        497
  54.8000        524
  55.2000        522
  55.6000        551
  56.0000        511
  56.4000        534
  56.8000        519
  57.2000        484
  57.6000        506
  58.0000        532
  58.4000        496
  58.8000        504
  59.2000        506
  59.6000        498
  60.0000        471
  60.4000        490
  60.8000        534
  61.2000        529
  61.6000        512
  62.0000        487
  62.4000        500
  62.8000        459
  63.2000        526
  63.6000        491
  64.0000        524
  64.4000        465
  64.8000        493
  65.2000        532
  65.6000        529
  66.0000        493
  66.4000        483
  66.8000        500
  67.2000        496
  67.6000        480
  68.0000        505
  68.4000        501
  68.8000        505
  69.2000        550
  69.6000        508
  70.0000        498
  70.4000        563
  70.8000        504
  71.2000        499
  71.6000        475
  72.0000        507
  72.4000        527
  72.8000        521
  73.2000        506
  73.6000        479
  74.0000        538
  74.4000        505
  74.8000        526
  75.2000        468
  75.6000        505
  76.0000        553
  76.4000        683
  76.8000        707
  77.2000        674
  77.6000        577
  78.0000        485
  78.4000        515
  78.8000        470
  79.2000        539
  79.6000        526
  80.0000        515
  80.4000        486
  80.8000        460
  81.2000        532
  81.6000        543
  82.0000        490
  82.4000        494
  82.8000        482
  83.2000        526
  83.6000        552
  84.0000        502
  84.4000        502
  84.8000        503
  85.2000        478
  85.6000        523
  86.0000        466
  86.4000        479
  86.8000        491
  87.2000        507
  87.6000        495
  88.0000        517
  88.4000        545
  88.8000        486
  89.2000        490
  89.6000        451
  90.0000        529
  90.4000        484
  90.8000        537
  91.2000        496
  91.6000        505
  92.0000        476
  92.4000        566
  92.8000        521
  93.2000        504
  93.6000        491
  94.0000        535
  94.4000        515
  94.8000        507
  95.2000        532
  95.6000        502
  96.0000        527
  96.4000        499
  96.8000        526
  97.2000        525
  97.6000        479
  98.0000        560
  98.4000        555
  98.8000        844
  99.2000        971
  99.6000        902
 100.0000        623
 100.4000        496
 100.8000        536
 101.2000        524
 101.6000        505
 102.0000        512
 102.4000        514
 102.8000        529
 103.2000        463
 103.6000        507
 104.0000        508
 104.4000        487
 104.8000        511
 105.2000        515
 105.6000        522
 106.0000        523
 106.4000        532
 106.8000        491
 107.2000        517
 107.6000        533
 108.0000        505
 108.4000        503
 108.8000        495
 109.2000        515
 109.6000        478
 110.0000        503
 110.4000        509
 110.8000        471
 111.2000        499
 111.6000        488
 112.0000        500
 112.4000        519
 112.8000        559
 113.2000        534
 113.6000        488
 114.0000        483
 114.4000        505
 114.8000        481
 115.2000        499
 115.6000        507
 116.0000        520
 116.4000        484
 116.8000        541
 117.2000        489
 117.6000        478
 118.0000        501
 118.4000        526
 118.8000        501
 119.2000        503
 119.6000        479
 120.0000        502
 120.4000        512
 120.8000        520
 121.2000        538
 121.6000        504
 122.0000        533
 122.4000        568
 122.8000        576
 123.2000        550
 123.6000        545
 124.0000        488
 124.4000        534
 124.8000        534
 125.2000        526
 125.6000        536
 126.0000        510
 126.4000        500
 126.8000        526
 127.2000        524
 127.6000        484
 128.0000        536
 128.4000        500
 128.8000        498
 129.2000        505
 129.6000        543
 130.0000        480

; Data for range 3
_DRIVE = COUPLED
_STEPTIME = 0.2
_STEPSIZE = 0.1
_STEPMODE = C
_START = 40
_THETA = 20
_2THETA = 40
_KHI = 18.3
_PHI = 90
_X = -25
_Y = 0
_Z = 0
_DETECTOR = 1
; Detector type : Scintillation counter
_HV = 687
_GAIN = 80
_LLD = 0.69
_ULD = 1.866
_DETECTORSLIT = unkn
_AUX1 = 0
_AUX2 = 0
_AUX3 = 0
_TIMESTARTED = 423
_TEMP_RATE = -1
_TEMP_DELAY = -1
_KV = 35
_MA = 40
_RANGE_WL = 1.78897
_3DPLANE = 0
_V4_ADDITIONALDETECTOR = 0
_V4_D8_DIBNUM = 1
_V4_DETECTORNAME = "Detector 1"
_V4_TTLDETECTOR = None
_V4_DETECTORTYPE = 1
_V4_DETECTORFLAGS = 524545
_V4_DETECTORHV = 687
_V4_DETECTORGAIN = 80
_V4_DETECTORLLD1 = 0.69
_V4_DETECTORWW1 = 1.176
_V4_DETECTORLLD2 = 0
_V4_DETECTORWW2 = 0
_V4_DETECTORPS = 0
_V4_DETECTORDT = 0
_V4_DETECTORPILEUPTIME = 0
_V4_COUNTERS_MASK = 1
_V4_DRIVES_MASK = 0
_V4_ENCODERS_MASK = 0
_2THETACOUNTS = 1
; 2THETA  Cnt1_D1
  40.0000        544
  40.4000        525
  40.8000        519
  41.2000        459
  41.6000        507
  42.0000        575
  42.4000        536
  42.8000        474
  43.2000        514
  43.6000        500
  44.0000        550
  44.4000        556
  44.8000        488
  45.2000        549
  45.6000        521
  46.0000        523
  46.4000        487
  46.8000        543
  47.2000        501
  47.6000        509
  48.0000        496
  48.4000        537
  48.8000        535
  49.2000        536
  49.6000        513
  50.0000        514
  50.4000        560
  50.8000        569
  51.2000        654
  51.6000       1448
  52.0000       2690
  52.4000       2281
  52.8000        761
  53.2000        580
  53.6000        500
  54.0000        534
  54.4000        542
  54.8000        479
  55.2000        513
  55.6000        551
  56.0000        539
  56.4000        536
  56.8000        499
  57.2000        541
  57.6000        497
  58.0000        540
  58.4000        521
  58.8000        503
  59.2000        480
  59.6000        508
  60.0000        473
  60.4000        521
  60.8000        486
  61.2000        515
  61.6000        511
  62.0000        485
  62.4000        509
  62.8000        542
  63.2000        483
  63.6000        508
  64.0000        521
  64.4000        497
  64.8000        509
  65.2000        505
  65.6000        529
  66.0000        492
  66.4000        524
  66.8000        534
  67.2000        501
  67.6000        499
  68.0000        496
  68.4000        538
  68.8000        484
  69.2000        480
  69.6000        514
  70.0000        516
  70.4000        466
  70.8000        459
  71.2000        572
  71.6000        512
  72.0000        490
  72.4000        507
  72.8000        499
  73.2000        471
  73.6000        491
  74.0000        539
  74.4000        528
  74.8000        506
  75.2000        497
  75.6000        507
  76.0000        506
  76.4000        579
  76.8000        559
  77.2000        634
  77.6000        554
  78.0000        533
  78.4000        495
  78.8000        521
  79.2000        530
  79.6000        525
  80.0000        529
  80.4000        528
  80.8000        505
  81.2000        505
  81.6000        512
  82.0000        474
  82.4000        485
  82.8000        518
  83.2000        475
  83.6000        512
  84.0000        526
  84.4000        537
  84.8000        506
  85.2000        515
  85.6000        505
  86.0000        504
  86.4000        516
  86.8000        462
  87.2000        514
  87.6000        533
  88.0000        499
  88.4000        517
  88.8000        465
  89.2000        504
  89.6000        485
  90.0000        523
  90.4000        505
  90.8000        550
  91.2000        521
  91.6000        492
  92.0000        534
  92.4000        471
  92.8000        528
  93.2000        513
  93.6000        520
  94.0000        461
  94.4000        459
  94.8000        514
  95.2000        514
  95.6000        556
  96.0000        527
  96.4000        494
  96.8000        471
  97.2000        543
  97.6000        507
  98.0000        529
  98.4000        540
  98.8000        665
  99.2000        864
  99.6000        813
 100.0000        657
 100.4000        523
 100.8000        516
 101.2000        517
 101.6000        505
 102.0000        500
 102.4000        537
 102.8000        464
 103.2000        509
 103.6000        528
 104.0000        523
 104.4000        497
 104.8000        481
 105.2000        466
 105.6000        572
 106.0000        501
 106.4000        517
 106.8000        513
 107.2000        535
 107.6000        480
 108.0000        508
 108.4000        472
 108.8000        482
 109.2000        519
 109.6000        517
 110.0000        520
 110.4000        528
 110.8000        461
 111.2000        533
 111.6000        494
 112.0000        481
 112.4000        516
 112.8000        508
 113.2000        488
 113.6000        523
 114.0000        504
 114.4000        514
 114.8000        487
 115.2000        532
 115.6000        475
 116.0000        505
 116.4000        533
 116.8000        526
 117.2000        480
 117.6000        491
 118.0000        479
 118.4000        515
 118.8000        513
 119.2000        502
 119.6000        506
 120.0000        500
 120.4000        536
 120.8000        467
 121.2000        514
 121.6000        495
[...]
  72.4000        315
  72.8000        328
  73.2000        347
  73.6000        338
  74.0000        331
  74.4000        310
  74.8000        334
  75.2000        364
  75.6000        390
  76.0000        368
  76.4000        392
  76.8000        375
  77.2000        394
  77.6000        368
  78.0000        360
  78.4000        358
  78.8000        341
  79.2000        348
  79.6000        347
  80.0000        338
  80.4000        366
  80.8000        305
  81.2000        366
  81.6000        367
  82.0000        359
  82.4000        358
  82.8000        340
  83.2000        341
  83.6000        325
  84.0000        375
  84.4000        343
  84.8000        372
  85.2000        368
  85.6000        342
  86.0000        352
  86.4000        351
  86.8000        356
  87.2000        340
  87.6000        359
  88.0000        339
  88.4000        336
  88.8000        307
  89.2000        383
  89.6000        383
  90.0000        345
  90.4000        374
  90.8000        399
  91.2000        363
  91.6000        408
  92.0000        374
  92.4000        412
  92.8000        407
  93.2000        345
  93.6000        371
  94.0000        311
  94.4000        378
  94.8000        370
  95.2000        336
  95.6000        380
  96.0000        365
  96.4000        352
  96.8000        368
  97.2000        426
  97.6000        347
  98.0000        484
  98.4000        493
  98.8000        642
  99.2000        625
  99.6000        611
 100.0000        486
 100.4000        427
 100.8000        402
 101.2000        405
 101.6000        404
 102.0000        382
 102.4000        368
 102.8000        384
 103.2000        440
 103.6000        368
 104.0000        417
 104.4000        410
 104.8000        361
 105.2000        395
 105.6000        396
 106.0000        403
 106.4000        376
 106.8000        357
 107.2000        384
 107.6000        384
 108.0000        391
 108.4000        411
 108.8000        399
 109.2000        387
 109.6000        407
 110.0000        390
 110.4000        381
 110.8000        407
 111.2000        435
 111.6000        372
 112.0000        379
 112.4000        394
 112.8000        378
 113.2000        367
 113.6000        385
 114.0000        389
 114.4000        379
 114.8000        389
 115.2000        382
 115.6000        378
 116.0000        359
 116.4000        377
 116.8000        410
 117.2000        419
 117.6000        408
 118.0000        401
 118.4000        379
 118.8000        395
 119.2000        422
 119.6000        406
 120.0000        425
 120.4000        380
 120.8000        431
 121.2000        429
 121.6000        431
 122.0000        442
 122.4000        501
 122.8000        545
 123.2000        519
 123.6000        512
 124.0000        494
 124.4000        409
 124.8000        434
 125.2000        422
 125.6000        432
 126.0000        420
 126.4000        422
 126.8000        410
 127.2000        394
 127.6000        412
 128.0000        428
 128.4000        430
 128.8000        426
 129.2000        409
 129.6000        400
 130.0000        418

; Data for range 53
_DRIVE = COUPLED
_STEPTIME = 0.2
_STEPSIZE = 0.1
_STEPMODE = C
_START = 40
_THETA = 20
_2THETA = 40
_KHI = 80
_PHI = 0
_X = -25
_Y = 0
_Z = 0
_DETECTOR = 1
; Detector type : Scintillation counter
_HV = 687
_GAIN = 80
_LLD = 0.69
_ULD = 1.866
_DETECTORSLIT = unkn
_AUX1 = 0
_AUX2 = 0
_AUX3 = 0
_TIMESTARTED = 1.03e+004
_TEMP_RATE = -1
_TEMP_DELAY = -1
_KV = 35
_MA = 40
_RANGE_WL = 1.78897
_3DPLANE = 0
_V4_ADDITIONALDETECTOR = 0
_V4_D8_DIBNUM = 1
_V4_DETECTORNAME = "Detector 1"
_V4_TTLDETECTOR = None
_V4_DETECTORTYPE = 1
_V4_DETECTORFLAGS = 524545
_V4_DETECTORHV = 687
_V4_DETECTORGAIN = 80
_V4_DETECTORLLD1 = 0.69
_V4_DETECTORWW1 = 1.176
_V4_DETECTORLLD2 = 0
_V4_DETECTORWW2 = 0
_V4_DETECTORPS = 0
_V4_DETECTORDT = 0
_V4_DETECTORPILEUPTIME = 0
_V4_COUNTERS_MASK = 1
_V4_DRIVES_MASK = 0
_V4_ENCODERS_MASK = 0
_2THETACOUNTS = 1
; 2THETA  Cnt1_D1
  40.0000        182
  40.4000        202
  40.8000        160
  41.2000        200
  41.6000        206
  42.0000        207
  42.4000        196
  42.8000        255
  43.2000        278
  43.6000        309
  44.0000        262
  44.4000        221
  44.8000        221
  45.2000        213
  45.6000        185
  46.0000        228
  46.4000        220
  46.8000        213
  47.2000        209
  47.6000        211
  48.0000        205
  48.4000        245
  48.8000        208
  49.2000        209
  49.6000        208
  50.0000        247
  50.4000        267
  50.8000        332
  51.2000        380
  51.6000        630
  52.0000        900
  52.4000        928
  52.8000        798
  53.2000        429
  53.6000        288
  54.0000        240
  54.4000        246
  54.8000        252
  55.2000        209
  55.6000        219
  56.0000        252
  56.4000        269
  56.8000        234
  57.2000        238
  57.6000        225
  58.0000        257
  58.4000        244
  58.8000        249
  59.2000        250
  59.6000        256
  60.0000        246
  60.4000        238
  60.8000        258
  61.2000        269
  61.6000        247
  62.0000        263
  62.4000        237
  62.8000        257
  63.2000        244
  63.6000        263
  64.0000        235
  64.4000        258
  64.8000        288
  65.2000        274
  65.6000        262
  66.0000        262
  66.4000        270
  66.8000        296
  67.2000        261
  67.6000        268
  68.0000        286
  68.4000        271
  68.8000        273
  69.2000        259
  69.6000        288
  70.0000        297
  70.4000        291
  70.8000        264
  71.2000        297
  71.6000        282
  72.0000        291
  72.4000        275
  72.8000        281
  73.2000        266
  73.6000        299
  74.0000        294
  74.4000        311
  74.8000        305
  75.2000        328
  75.6000        315
  76.0000        343
  76.4000        356
  76.8000        404
  77.2000        344
  77.6000        322
  78.0000        330
  78.4000        305
  78.8000        311
  79.2000        316
  79.6000        311
  80.0000        284
  80.4000        330
  80.8000        319
  81.2000        305
  81.6000        340
  82.0000        327
  82.4000        347
  82.8000        351
  83.2000        317
  83.6000        293
  84.0000        343
  84.4000        281
  84.8000        356
  85.2000        362
  85.6000        319
  86.0000        341
  86.4000        327
  86.8000        354
  87.2000        322
  87.6000        318
  88.0000        371
  88.4000        343
  88.8000        349
  89.2000        339
  89.6000        327
  90.0000        372
  90.4000        348
  90.8000        349
  91.2000        369
  91.6000        353
  92.0000        367
  92.4000        369
  92.8000        352
  93.2000        333
  93.6000        354
  94.0000        372
  94.4000        341
  94.8000        366
  95.2000        369
  95.6000        393
  96.0000        358
  96.4000        344
  96.8000        377
  97.2000        376
  97.6000        391
  98.0000        495
  98.4000        562
  98.8000        664
  99.2000        605
  99.6000        579
 100.0000        519
 100.4000        443
 100.8000        456
 101.2000        423
 101.6000        413
 102.0000        387
 102.4000        393
 102.8000        427
 103.2000        392
 103.6000        364
 104.0000        394
 104.4000        379
 104.8000        417
 105.2000        393
 105.6000        374
 106.0000        421
 106.4000        403
 106.8000        410
 107.2000        423
 107.6000        378
 108.0000        412
 108.4000        454
 108.8000        407
 109.2000        387
 109.6000        410
 110.0000        442
 110.4000        397
 110.8000        408
 111.2000        437
 111.6000        407
 112.0000        393
 112.4000        408
 112.8000        402
 113.2000        397
 113.6000        406
 114.0000        390
 114.4000        382
 114.8000        406
 115.2000        422
 115.6000        429
 116.0000        422
 116.4000        455
 116.8000        384
 117.2000        403
 117.6000        404
 118.0000        410
 118.4000        413
 118.8000        430
 119.2000        454
 119.6000        425
 120.0000        414
 120.4000        435
 120.8000        387
 121.2000        473
 121.6000        454
 122.0000        438
 122.4000        469
 122.8000        521
 123.2000        590
 123.6000        562
 124.0000        491
 124.4000        478
 124.8000        457
 125.2000        444
 125.6000        445
 126.0000        422
 126.4000        415
 126.8000        378
 127.2000        436
 127.6000        441
 128.0000        439
 128.4000        437
 128.8000        436
 129.2000        451
 129.6000        412
 130.0000        452