File: exp_dat/old/exp_2013_11_11/20pct_-20L.uxd
; (content of file C:\DIFFDAT1\GIFT\MDL\Seawoong Lee\20131104_MV8\equal_area_maxkhi080_n8_2th40_130_x-25y-25_-20L.raw)
_FILEVERSION = 3
_SAMPLE =
_+SAMPLE =
_SITE = Korea
_USER = Admin
_GONIOMETER_CODE = 20
; Goniometer : D8 theta/2theta, stage : Unknown
_SAMPLE_CHANGER_CODE = 0
_ATTACHMENTS_CODE = 0
_GONIOMETER_RADIUS = 300
_FIXED_DIVSLIT = 1
_FIXED_SAMPLESLIT = 0
_SOLLER_SLITS = 2
_FIXED_DETSLIT = 0.1
_MONOCHROMATOR = 0
; Incident beam monochromator : None
_SOLLER_SLITS_2 = 2
_THIN_FILM = N
_BETA_FILTER = Y
_FIXED_ANTISLIT = 0.6
_ANALYZER_CODE = 0
; Received beam analyzer : None
_DATEMEASURED = "07-Nov-2013 06:45:07"
_WL_UNIT = A
_WL1 = 1.78897
_WL2 = 1.79285
_WL3 = 1.62079
_WLRATIO = 0.5
_ANODE = Co
_V4_INF_CREATOR = XRDWizard
_V4_INF_CREATOR_VERSION = V2.9.0.22
_V4_INF_WIZARD_VERSION = V2.9.0.22
_V4_INF_WIZARD_ADDINS = V2.9.0.22
_V4_INF_WIZARD_DOCTYPE = XRD
_V4_INF_OSUSER = Postech
_V4_INF_USER = Admin
_V4_INF_SITE = Korea

; Data for range 1
_DRIVE = COUPLED
_STEPTIME = 0.2
_STEPSIZE = 0.1
_STEPMODE = C
_START = 40
_THETA = 20
_2THETA = 40
_KHI = 0
_PHI = 0
_X = -25
_Y = -25
_Z = 0
_DETECTOR = 1
; Detector type : Scintillation counter
_HV = 687
_GAIN = 80
_LLD = 0.69
_ULD = 1.866
_DETECTORSLIT = unkn
_AUX1 = 0
_AUX2 = 0
_AUX3 = 0
_TIMESTARTED = 29
_TEMP_RATE = -1
_TEMP_DELAY = -1
_KV = 35
_MA = 40
_RANGE_WL = 1.78897
_3DPLANE = 0
_V4_ADDITIONALDETECTOR = 0
_V4_D8_DIBNUM = 1
_V4_DETECTORNAME = "Detector 1"
_V4_TTLDETECTOR = None
_V4_DETECTORTYPE = 1
_V4_DETECTORFLAGS = 524545
_V4_DETECTORHV = 687
_V4_DETECTORGAIN = 80
_V4_DETECTORLLD1 = 0.69
_V4_DETECTORWW1 = 1.176
_V4_DETECTORLLD2 = 0
_V4_DETECTORWW2 = 0
_V4_DETECTORPS = 0
_V4_DETECTORDT = 0
_V4_DETECTORPILEUPTIME = 0
_V4_COUNTERS_MASK = 1
_V4_DRIVES_MASK = 0
_V4_ENCODERS_MASK = 0
_2THETACOUNTS = 1
; 2THETA  Cnt1_D1
  40.0000        499
  40.4000        503
  40.8000        487
  41.2000        504
  41.6000        513
  42.0000        460
  42.4000        514
  42.8000        499
  43.2000        514
  43.6000        505
  44.0000        486
  44.4000        499
  44.8000        505
  45.2000        512
  45.6000        572
  46.0000        490
  46.4000        518
  46.8000        531
  47.2000        530
  47.6000        503
  48.0000        542
  48.4000        523
  48.8000        528
  49.2000        552
  49.6000        519
  50.0000        507
  50.4000        561
  50.8000        567
  51.2000        556
  51.6000        887
  52.0000       1544
  52.4000       1482
  52.8000        665
  53.2000        518
  53.6000        564
  54.0000        496
  54.4000        527
  54.8000        506
  55.2000        509
  55.6000        527
  56.0000        521
  56.4000        520
  56.8000        483
  57.2000        558
  57.6000        512
  58.0000        567
  58.4000        529
  58.8000        533
  59.2000        522
  59.6000        530
  60.0000        542
  60.4000        529
  60.8000        505
  61.2000        511
  61.6000        516
  62.0000        542
  62.4000        532
  62.8000        551
  63.2000        500
  63.6000        499
  64.0000        486
  64.4000        557
  64.8000        505
  65.2000        476
  65.6000        514
  66.0000        533
  66.4000        504
  66.8000        515
  67.2000        532
  67.6000        425
  68.0000        464
  68.4000        539
  68.8000        530
  69.2000        526
  69.6000        538
  70.0000        499
  70.4000        511
  70.8000        510
  71.2000        509
  71.6000        508
  72.0000        533
  72.4000        493
  72.8000        516
  73.2000        486
  73.6000        491
  74.0000        546
  74.4000        496
  74.8000        478
  75.2000        511
  75.6000        545
  76.0000        588
  76.4000        777
  76.8000       1066
  77.2000        965
  77.6000        646
  78.0000        528
  78.4000        525
  78.8000        519
  79.2000        541
  79.6000        534
  80.0000        538
  80.4000        463
  80.8000        565
  81.2000        509
  81.6000        489
  82.0000        489
  82.4000        525
  82.8000        515
  83.2000        510
  83.6000        504
  84.0000        533
  84.4000        503
  84.8000        505
  85.2000        497
  85.6000        555
  86.0000        511
  86.4000        519
  86.8000        582
  87.2000        497
  87.6000        513
  88.0000        521
  88.4000        500
  88.8000        529
  89.2000        540
  89.6000        547
  90.0000        551
  90.4000        508
  90.8000        532
  91.2000        527
  91.6000        533
  92.0000        556
  92.4000        517
  92.8000        511
  93.2000        573
  93.6000        510
  94.0000        509
  94.4000        549
  94.8000        518
  95.2000        463
  95.6000        536
  96.0000        562
  96.4000        547
  96.8000        511
  97.2000        559
  97.6000        525
  98.0000        569
  98.4000        640
  98.8000       1001
  99.2000       1432
  99.6000       1301
 100.0000        732
 100.4000        563
 100.8000        522
 101.2000        554
 101.6000        537
 102.0000        555
 102.4000        549
 102.8000        527
 103.2000        527
 103.6000        526
 104.0000        514
 104.4000        523
 104.8000        508
 105.2000        549
 105.6000        561
 106.0000        524
 106.4000        514
 106.8000        486
 107.2000        490
 107.6000        491
 108.0000        523
 108.4000        529
 108.8000        485
 109.2000        497
 109.6000        541
 110.0000        536
 110.4000        542
 110.8000        506
 111.2000        533
 111.6000        498
 112.0000        519
 112.4000        508
 112.8000        500
 113.2000        524
 113.6000        509
 114.0000        514
 114.4000        512
 114.8000        500
 115.2000        546
 115.6000        542
 116.0000        530
 116.4000        549
 116.8000        546
 117.2000        496
 117.6000        510
 118.0000        518
 118.4000        536
 118.8000        485
 119.2000        528
 119.6000        535
 120.0000        491
 120.4000        518
 120.8000        509
 121.2000        470
 121.6000        496
 122.0000        507
 122.4000        512
 122.8000        559
 123.2000        603
 123.6000        593
 124.0000        561
 124.4000        558
 124.8000        493
 125.2000        527
 125.6000        515
 126.0000        501
 126.4000        503
 126.8000        532
 127.2000        532
 127.6000        539
 128.0000        510
 128.4000        522
 128.8000        572
 129.2000        539
 129.6000        523
 130.0000        520

; Data for range 2
_DRIVE = COUPLED
_STEPTIME = 0.2
_STEPSIZE = 0.1
_STEPMODE = C
_START = 40
_THETA = 20
_2THETA = 40
_KHI = 10.5
_PHI = 60
_X = -25
_Y = -25
_Z = 0
_DETECTOR = 1
; Detector type : Scintillation counter
_HV = 687
_GAIN = 80
_LLD = 0.69
_ULD = 1.866
_DETECTORSLIT = unkn
_AUX1 = 0
_AUX2 = 0
_AUX3 = 0
_TIMESTARTED = 225
_TEMP_RATE = -1
_TEMP_DELAY = -1
_KV = 35
_MA = 40
_RANGE_WL = 1.78897
_3DPLANE = 0
_V4_ADDITIONALDETECTOR = 0
_V4_D8_DIBNUM = 1
_V4_DETECTORNAME = "Detector 1"
_V4_TTLDETECTOR = None
_V4_DETECTORTYPE = 1
_V4_DETECTORFLAGS = 524545
_V4_DETECTORHV = 687
_V4_DETECTORGAIN = 80
_V4_DETECTORLLD1 = 0.69
_V4_DETECTORWW1 = 1.176
_V4_DETECTORLLD2 = 0
_V4_DETECTORWW2 = 0
_V4_DETECTORPS = 0
_V4_DETECTORDT = 0
_V4_DETECTORPILEUPTIME = 0
_V4_COUNTERS_MASK = 1
_V4_DRIVES_MASK = 0
_V4_ENCODERS_MASK = 0
_2THETACOUNTS = 1
; 2THETA  Cnt1_D1
  40.0000        511
  40.4000        536
  40.8000        507
  41.2000        560
  41.6000        530
  42.0000        545
  42.4000        526
  42.8000        587
  43.2000        527
  43.6000        536
  44.0000        537
  44.4000        523
  44.8000        577
  45.2000        544
  45.6000        594
  46.0000        544
  46.4000        547
  46.8000        543
  47.2000        562
  47.6000        562
  48.0000        551
  48.4000        502
  48.8000        527
  49.2000        551
  49.6000        560
  50.0000        534
  50.4000        543
  50.8000        563
  51.2000        598
  51.6000        949
  52.0000       1595
  52.4000       1554
  52.8000        683
  53.2000        558
  53.6000        529
  54.0000        541
  54.4000        538
  54.8000        512
  55.2000        555
  55.6000        563
  56.0000        531
  56.4000        515
  56.8000        514
  57.2000        530
  57.6000        564
  58.0000        531
  58.4000        559
  58.8000        557
  59.2000        548
  59.6000        547
  60.0000        566
  60.4000        558
  60.8000        543
  61.2000        543
  61.6000        534
  62.0000        514
  62.4000        534
  62.8000        545
  63.2000        520
  63.6000        499
  64.0000        507
  64.4000        508
  64.8000        527
  65.2000        495
  65.6000        551
  66.0000        572
  66.4000        489
  66.8000        512
  67.2000        571
  67.6000        504
  68.0000        555
  68.4000        534
  68.8000        488
  69.2000        531
  69.6000        515
  70.0000        487
  70.4000        530
  70.8000        494
  71.2000        548
  71.6000        537
  72.0000        520
  72.4000        489
  72.8000        496
  73.2000        531
  73.6000        542
  74.0000        547
  74.4000        540
  74.8000        519
  75.2000        564
  75.6000        526
  76.0000        501
  76.4000        650
  76.8000        754
  77.2000        730
  77.6000        584
  78.0000        517
  78.4000        524
  78.8000        493
  79.2000        508
  79.6000        508
  80.0000        502
  80.4000        506
  80.8000        543
  81.2000        505
  81.6000        538
  82.0000        481
  82.4000        533
  82.8000        529
  83.2000        522
  83.6000        499
  84.0000        532
  84.4000        523
  84.8000        555
  85.2000        470
  85.6000        498
  86.0000        507
  86.4000        524
  86.8000        503
  87.2000        506
  87.6000        524
  88.0000        528
  88.4000        554
  88.8000        534
  89.2000        566
  89.6000        535
  90.0000        525
  90.4000        533
  90.8000        547
  91.2000        516
  91.6000        492
  92.0000        546
  92.4000        512
  92.8000        525
  93.2000        493
  93.6000        481
  94.0000        515
  94.4000        514
  94.8000        495
  95.2000        523
  95.6000        555
  96.0000        552
  96.4000        496
  96.8000        506
  97.2000        537
  97.6000        551
  98.0000        551
  98.4000        606
  98.8000        767
  99.2000       1053
  99.6000       1008
 100.0000        657
 100.4000        539
 100.8000        519
 101.2000        531
 101.6000        553
 102.0000        527
 102.4000        535
 102.8000        515
 103.2000        550
 103.6000        513
 104.0000        498
 104.4000        520
 104.8000        523
 105.2000        575
 105.6000        510
 106.0000        566
 106.4000        527
 106.8000        491
 107.2000        563
 107.6000        523
 108.0000        498
 108.4000        550
 108.8000        520
 109.2000        541
 109.6000        521
 110.0000        547
 110.4000        512
 110.8000        534
 111.2000        510
 111.6000        504
 112.0000        526
 112.4000        527
 112.8000        510
 113.2000        497
 113.6000        534
 114.0000        566
 114.4000        500
 114.8000        493
 115.2000        515
 115.6000        521
 116.0000        519
 116.4000        508
 116.8000        546
 117.2000        484
 117.6000        501
 118.0000        533
 118.4000        530
 118.8000        544
 119.2000        517
 119.6000        560
 120.0000        467
 120.4000        532
 120.8000        520
 121.2000        504
 121.6000        518
 122.0000        536
 122.4000        526
 122.8000        580
 123.2000        562
 123.6000        632
 124.0000        518
 124.4000        514
 124.8000        468
 125.2000        511
 125.6000        543
 126.0000        484
 126.4000        537
 126.8000        515
 127.2000        514
 127.6000        523
 128.0000        516
 128.4000        526
 128.8000        525
 129.2000        536
 129.6000        523
 130.0000        510

; Data for range 3
_DRIVE = COUPLED
_STEPTIME = 0.2
_STEPSIZE = 0.1
_STEPMODE = C
_START = 40
_THETA = 20
_2THETA = 40
_KHI = 18.3
_PHI = 90
_X = -25
_Y = -25
_Z = 0
_DETECTOR = 1
; Detector type : Scintillation counter
_HV = 687
_GAIN = 80
_LLD = 0.69
_ULD = 1.866
_DETECTORSLIT = unkn
_AUX1 = 0
_AUX2 = 0
_AUX3 = 0
_TIMESTARTED = 422
_TEMP_RATE = -1
_TEMP_DELAY = -1
_KV = 35
_MA = 40
_RANGE_WL = 1.78897
_3DPLANE = 0
_V4_ADDITIONALDETECTOR = 0
_V4_D8_DIBNUM = 1
_V4_DETECTORNAME = "Detector 1"
_V4_TTLDETECTOR = None
_V4_DETECTORTYPE = 1
_V4_DETECTORFLAGS = 524545
_V4_DETECTORHV = 687
_V4_DETECTORGAIN = 80
_V4_DETECTORLLD1 = 0.69
_V4_DETECTORWW1 = 1.176
_V4_DETECTORLLD2 = 0
_V4_DETECTORWW2 = 0
_V4_DETECTORPS = 0
_V4_DETECTORDT = 0
_V4_DETECTORPILEUPTIME = 0
_V4_COUNTERS_MASK = 1
_V4_DRIVES_MASK = 0
_V4_ENCODERS_MASK = 0
_2THETACOUNTS = 1
; 2THETA  Cnt1_D1
  40.0000        548
  40.4000        515
  40.8000        536
  41.2000        499
  41.6000        545
  42.0000        498
  42.4000        542
  42.8000        508
  43.2000        556
  43.6000        538
  44.0000        585
  44.4000        533
  44.8000        569
  45.2000        531
  45.6000        566
  46.0000        552
  46.4000        549
  46.8000        556
  47.2000        533
  47.6000        516
  48.0000        503
  48.4000        498
  48.8000        524
  49.2000        565
  49.6000        538
  50.0000        529
  50.4000        600
  50.8000        704
  51.2000        804
  51.6000       1573
  52.0000       3082
  52.4000       2548
  52.8000        810
  53.2000        554
  53.6000        565
  54.0000        547
  54.4000        523
  54.8000        550
  55.2000        556
  55.6000        539
  56.0000        523
  56.4000        594
  56.8000        502
  57.2000        543
  57.6000        579
  58.0000        562
  58.4000        530
  58.8000        524
  59.2000        574
  59.6000        538
  60.0000        561
  60.4000        560
  60.8000        534
  61.2000        495
  61.6000        508
  62.0000        538
  62.4000        553
  62.8000        497
  63.2000        551
  63.6000        526
  64.0000        505
  64.4000        555
  64.8000        488
  65.2000        534
  65.6000        497
  66.0000        513
  66.4000        558
  66.8000        524
  67.2000        534
  67.6000        508
  68.0000        526
  68.4000        532
  68.8000        517
  69.2000        536
  69.6000        534
  70.0000        518
  70.4000        517
  70.8000        524
  71.2000        532
  71.6000        524
  72.0000        506
  72.4000        536
  72.8000        521
  73.2000        532
  73.6000        514
  74.0000        520
  74.4000        478
  74.8000        548
  75.2000        553
  75.6000        506
  76.0000        527
  76.4000        596
  76.8000        584
  77.2000        591
  77.6000        586
  78.0000        499
  78.4000        578
  78.8000        498
  79.2000        530
  79.6000        488
  80.0000        477
  80.4000        491
  80.8000        473
  81.2000        499
  81.6000        521
  82.0000        498
  82.4000        474
  82.8000        533
  83.2000        509
  83.6000        545
  84.0000        486
  84.4000        516
  84.8000        534
  85.2000        492
  85.6000        518
  86.0000        544
  86.4000        550
  86.8000        529
  87.2000        494
  87.6000        526
  88.0000        500
  88.4000        531
  88.8000        497
  89.2000        532
  89.6000        548
  90.0000        504
  90.4000        501
  90.8000        502
  91.2000        512
  91.6000        526
  92.0000        478
  92.4000        503
  92.8000        501
  93.2000        506
  93.6000        516
  94.0000        527
  94.4000        483
  94.8000        565
  95.2000        536
  95.6000        479
  96.0000        463
  96.4000        542
  96.8000        519
  97.2000        508
  97.6000        512
  98.0000        505
  98.4000        553
  98.8000        683
  99.2000        937
  99.6000        806
 100.0000        640
 100.4000        522
 100.8000        501
 101.2000        552
 101.6000        486
 102.0000        492
 102.4000        507
 102.8000        487
 103.2000        536
 103.6000        529
 104.0000        530
 104.4000        490
 104.8000        526
 105.2000        510
 105.6000        593
 106.0000        548
 106.4000        575
 106.8000        511
 107.2000        509
 107.6000        505
 108.0000        515
 108.4000        523
 108.8000        496
 109.2000        521
 109.6000        506
 110.0000        478
 110.4000        500
 110.8000        529
 111.2000        558
 111.6000        528
 112.0000        540
 112.4000        515
 112.8000        485
 113.2000        527
 113.6000        524
 114.0000        532
 114.4000        506
 114.8000        554
 115.2000        510
 115.6000        518
 116.0000        521
 116.4000        470
 116.8000        518
 117.2000        531
 117.6000        508
 118.0000        517
 118.4000        481
 118.8000        530
 119.2000        485
 119.6000        509
 120.0000        476
 120.4000        506
 120.8000        533
 121.2000        488
 121.6000        554
[...]
  72.4000        291
  72.8000        280
  73.2000        253
  73.6000        305
  74.0000        280
  74.4000        296
  74.8000        322
  75.2000        342
  75.6000        323
  76.0000        340
  76.4000        335
  76.8000        363
  77.2000        359
  77.6000        347
  78.0000        322
  78.4000        270
  78.8000        318
  79.2000        315
  79.6000        310
  80.0000        278
  80.4000        317
  80.8000        311
  81.2000        328
  81.6000        306
  82.0000        314
  82.4000        306
  82.8000        308
  83.2000        318
  83.6000        317
  84.0000        306
  84.4000        317
  84.8000        299
  85.2000        300
  85.6000        325
  86.0000        331
  86.4000        338
  86.8000        310
  87.2000        330
  87.6000        295
  88.0000        322
  88.4000        331
  88.8000        291
  89.2000        348
  89.6000        346
  90.0000        288
  90.4000        327
  90.8000        343
  91.2000        341
  91.6000        342
  92.0000        330
  92.4000        375
  92.8000        342
  93.2000        333
  93.6000        340
  94.0000        346
  94.4000        327
  94.8000        334
  95.2000        301
  95.6000        308
  96.0000        354
  96.4000        341
  96.8000        318
  97.2000        386
  97.6000        367
  98.0000        391
  98.4000        479
  98.8000        557
  99.2000        544
  99.6000        549
 100.0000        467
 100.4000        387
 100.8000        350
 101.2000        333
 101.6000        328
 102.0000        359
 102.4000        323
 102.8000        316
 103.2000        334
 103.6000        355
 104.0000        341
 104.4000        325
 104.8000        343
 105.2000        311
 105.6000        301
 106.0000        303
 106.4000        351
 106.8000        370
 107.2000        349
 107.6000        321
 108.0000        345
 108.4000        330
 108.8000        328
 109.2000        364
 109.6000        353
 110.0000        336
 110.4000        332
 110.8000        363
 111.2000        364
 111.6000        360
 112.0000        379
 112.4000        372
 112.8000        389
 113.2000        376
 113.6000        362
 114.0000        334
 114.4000        350
 114.8000        351
 115.2000        358
 115.6000        355
 116.0000        364
 116.4000        381
 116.8000        358
 117.2000        369
 117.6000        370
 118.0000        385
 118.4000        396
 118.8000        367
 119.2000        341
 119.6000        380
 120.0000        358
 120.4000        386
 120.8000        352
 121.2000        367
 121.6000        373
 122.0000        413
 122.4000        392
 122.8000        456
 123.2000        456
 123.6000        440
 124.0000        434
 124.4000        408
 124.8000        413
 125.2000        356
 125.6000        352
 126.0000        370
 126.4000        413
 126.8000        384
 127.2000        338
 127.6000        370
 128.0000        381
 128.4000        361
 128.8000        328
 129.2000        344
 129.6000        404
 130.0000        386

; Data for range 53
_DRIVE = COUPLED
_STEPTIME = 0.2
_STEPSIZE = 0.1
_STEPMODE = C
_START = 40
_THETA = 20
_2THETA = 40
_KHI = 80
_PHI = 0
_X = -25
_Y = -25
_Z = 0
_DETECTOR = 1
; Detector type : Scintillation counter
_HV = 687
_GAIN = 80
_LLD = 0.69
_ULD = 1.866
_DETECTORSLIT = unkn
_AUX1 = 0
_AUX2 = 0
_AUX3 = 0
_TIMESTARTED = 1.03e+004
_TEMP_RATE = -1
_TEMP_DELAY = -1
_KV = 35
_MA = 40
_RANGE_WL = 1.78897
_3DPLANE = 0
_V4_ADDITIONALDETECTOR = 0
_V4_D8_DIBNUM = 1
_V4_DETECTORNAME = "Detector 1"
_V4_TTLDETECTOR = None
_V4_DETECTORTYPE = 1
_V4_DETECTORFLAGS = 524545
_V4_DETECTORHV = 687
_V4_DETECTORGAIN = 80
_V4_DETECTORLLD1 = 0.69
_V4_DETECTORWW1 = 1.176
_V4_DETECTORLLD2 = 0
_V4_DETECTORWW2 = 0
_V4_DETECTORPS = 0
_V4_DETECTORDT = 0
_V4_DETECTORPILEUPTIME = 0
_V4_COUNTERS_MASK = 1
_V4_DRIVES_MASK = 0
_V4_ENCODERS_MASK = 0
_2THETACOUNTS = 1
; 2THETA  Cnt1_D1
  40.0000        159
  40.4000        175
  40.8000        138
  41.2000        155
  41.6000        140
  42.0000        160
  42.4000        154
  42.8000        167
  43.2000        175
  43.6000        251
  44.0000        215
  44.4000        181
  44.8000        155
  45.2000        147
  45.6000        154
  46.0000        159
  46.4000        153
  46.8000        147
  47.2000        168
  47.6000        172
  48.0000        142
  48.4000        151
  48.8000        199
  49.2000        168
  49.6000        171
  50.0000        215
  50.4000        238
  50.8000        247
  51.2000        288
  51.6000        507
  52.0000        740
  52.4000        880
  52.8000        653
  53.2000        366
  53.6000        240
  54.0000        169
  54.4000        198
  54.8000        217
  55.2000        216
  55.6000        195
  56.0000        197
  56.4000        200
  56.8000        196
  57.2000        177
  57.6000        200
  58.0000        205
  58.4000        234
  58.8000        197
  59.2000        215
  59.6000        181
  60.0000        236
  60.4000        213
  60.8000        196
  61.2000        202
  61.6000        214
  62.0000        204
  62.4000        180
  62.8000        186
  63.2000        184
  63.6000        177
  64.0000        199
  64.4000        214
  64.8000        222
  65.2000        218
  65.6000        259
  66.0000        205
  66.4000        218
  66.8000        204
  67.2000        220
  67.6000        214
  68.0000        227
  68.4000        200
  68.8000        225
  69.2000        226
  69.6000        228
  70.0000        224
  70.4000        212
  70.8000        256
  71.2000        235
  71.6000        239
  72.0000        239
  72.4000        245
  72.8000        212
  73.2000        236
  73.6000        247
  74.0000        240
  74.4000        230
  74.8000        244
  75.2000        257
  75.6000        249
  76.0000        250
  76.4000        279
  76.8000        292
  77.2000        297
  77.6000        304
  78.0000        250
  78.4000        277
  78.8000        264
  79.2000        278
  79.6000        280
  80.0000        268
  80.4000        235
  80.8000        261
  81.2000        255
  81.6000        270
  82.0000        261
  82.4000        284
  82.8000        267
  83.2000        253
  83.6000        274
  84.0000        249
  84.4000        274
  84.8000        272
  85.2000        288
  85.6000        292
  86.0000        259
  86.4000        312
  86.8000        267
  87.2000        291
  87.6000        302
  88.0000        284
  88.4000        258
  88.8000        306
  89.2000        299
  89.6000        307
  90.0000        293
  90.4000        317
  90.8000        297
  91.2000        292
  91.6000        283
  92.0000        303
  92.4000        301
  92.8000        317
  93.2000        290
  93.6000        322
  94.0000        302
  94.4000        317
  94.8000        321
  95.2000        316
  95.6000        310
  96.0000        297
  96.4000        321
  96.8000        299
  97.2000        350
  97.6000        326
  98.0000        341
  98.4000        394
  98.8000        505
  99.2000        563
  99.6000        495
 100.0000        510
 100.4000        396
 100.8000        348
 101.2000        314
 101.6000        357
 102.0000        308
 102.4000        340
 102.8000        335
 103.2000        341
 103.6000        290
 104.0000        346
 104.4000        338
 104.8000        320
 105.2000        339
 105.6000        334
 106.0000        352
 106.4000        331
 106.8000        328
 107.2000        365
 107.6000        313
 108.0000        346
 108.4000        332
 108.8000        348
 109.2000        361
 109.6000        350
 110.0000        379
 110.4000        378
 110.8000        379
 111.2000        343
 111.6000        335
 112.0000        385
 112.4000        363
 112.8000        364
 113.2000        372
 113.6000        338
 114.0000        328
 114.4000        357
 114.8000        405
 115.2000        360
 115.6000        371
 116.0000        381
 116.4000        389
 116.8000        369
 117.2000        383
 117.6000        426
 118.0000        373
 118.4000        363
 118.8000        409
 119.2000        417
 119.6000        381
 120.0000        375
 120.4000        350
 120.8000        391
 121.2000        412
 121.6000        385
 122.0000        420
 122.4000        453
 122.8000        478
 123.2000        516
 123.6000        451
 124.0000        479
 124.4000        413
 124.8000        389
 125.2000        385
 125.6000        403
 126.0000        394
 126.4000        382
 126.8000        369
 127.2000        336
 127.6000        424
 128.0000        383
 128.4000        391
 128.8000        398
 129.2000        398
 129.6000        359
 130.0000        396