File: exp_dat/old/exp_2013_11_11/21pct_-20G.uxd
; (content of file C:\DIFFDAT1\GIFT\MDL\Seawoong Lee\20131104_MV8\equal_area_maxkhi080_n8_2th40_130_x-25y-25_-20g.raw)
_FILEVERSION = 3
_SAMPLE =
_+SAMPLE =
_SITE = Korea
_USER = Admin
_GONIOMETER_CODE = 20
; Goniometer : D8 theta/2theta, stage : Unknown
_SAMPLE_CHANGER_CODE = 0
_ATTACHMENTS_CODE = 0
_GONIOMETER_RADIUS = 300
_FIXED_DIVSLIT = 1
_FIXED_SAMPLESLIT = 0
_SOLLER_SLITS = 2
_FIXED_DETSLIT = 0.1
_MONOCHROMATOR = 0
; Incident beam monochromator : None
_SOLLER_SLITS_2 = 2
_THIN_FILM = N
_BETA_FILTER = Y
_FIXED_ANTISLIT = 0.6
_ANALYZER_CODE = 0
; Received beam analyzer : None
_DATEMEASURED = "08-Nov-2013 06:08:49"
_WL_UNIT = A
_WL1 = 1.78897
_WL2 = 1.79285
_WL3 = 1.62079
_WLRATIO = 0.5
_ANODE = Co
_V4_INF_CREATOR = XRDWizard
_V4_INF_CREATOR_VERSION = V2.9.0.22
_V4_INF_WIZARD_VERSION = V2.9.0.22
_V4_INF_WIZARD_ADDINS = V2.9.0.22
_V4_INF_WIZARD_DOCTYPE = XRD
_V4_INF_OSUSER = Postech
_V4_INF_USER = Admin
_V4_INF_SITE = Korea

; Data for range 1
_DRIVE = COUPLED
_STEPTIME = 0.2
_STEPSIZE = 0.1
_STEPMODE = C
_START = 40
_THETA = 20
_2THETA = 40
_KHI = 0
_PHI = 0
_X = -25
_Y = -25
_Z = 0
_DETECTOR = 1
; Detector type : Scintillation counter
_HV = 687
_GAIN = 80
_LLD = 0.69
_ULD = 1.866
_DETECTORSLIT = unkn
_AUX1 = 0
_AUX2 = 0
_AUX3 = 0
_TIMESTARTED = 28
_TEMP_RATE = -1
_TEMP_DELAY = -1
_KV = 35
_MA = 40
_RANGE_WL = 1.78897
_3DPLANE = 0
_V4_ADDITIONALDETECTOR = 0
_V4_D8_DIBNUM = 1
_V4_DETECTORNAME = "Detector 1"
_V4_TTLDETECTOR = None
_V4_DETECTORTYPE = 1
_V4_DETECTORFLAGS = 524545
_V4_DETECTORHV = 687
_V4_DETECTORGAIN = 80
_V4_DETECTORLLD1 = 0.69
_V4_DETECTORWW1 = 1.176
_V4_DETECTORLLD2 = 0
_V4_DETECTORWW2 = 0
_V4_DETECTORPS = 0
_V4_DETECTORDT = 0
_V4_DETECTORPILEUPTIME = 0
_V4_COUNTERS_MASK = 1
_V4_DRIVES_MASK = 0
_V4_ENCODERS_MASK = 0
_2THETACOUNTS = 1
; 2THETA  Cnt1_D1
  40.0000        560
  40.4000        523
  40.8000        489
  41.2000        503
  41.6000        540
  42.0000        535
  42.4000        533
  42.8000        509
  43.2000        514
  43.6000        517
  44.0000        521
  44.4000        518
  44.8000        525
  45.2000        524
  45.6000        574
  46.0000        547
  46.4000        550
  46.8000        531
  47.2000        526
  47.6000        528
  48.0000        540
  48.4000        494
  48.8000        538
  49.2000        560
  49.6000        505
  50.0000        556
  50.4000        546
  50.8000        539
  51.2000        585
  51.6000        768
  52.0000       1180
  52.4000       1220
  52.8000        670
  53.2000        521
  53.6000        530
  54.0000        542
  54.4000        501
  54.8000        517
  55.2000        539
  55.6000        516
  56.0000        507
  56.4000        536
  56.8000        514
  57.2000        512
  57.6000        517
  58.0000        559
  58.4000        482
  58.8000        572
  59.2000        532
  59.6000        525
  60.0000        500
  60.4000        522
  60.8000        551
  61.2000        527
  61.6000        492
  62.0000        540
  62.4000        544
  62.8000        489
  63.2000        490
  63.6000        504
  64.0000        536
  64.4000        562
  64.8000        554
  65.2000        501
  65.6000        535
  66.0000        493
  66.4000        483
  66.8000        501
  67.2000        539
  67.6000        491
  68.0000        545
  68.4000        497
  68.8000        539
  69.2000        468
  69.6000        511
  70.0000        498
  70.4000        479
  70.8000        491
  71.2000        494
  71.6000        513
  72.0000        527
  72.4000        514
  72.8000        481
  73.2000        510
  73.6000        518
  74.0000        490
  74.4000        506
  74.8000        541
  75.2000        514
  75.6000        530
  76.0000        665
  76.4000       1073
  76.8000       1329
  77.2000        998
  77.6000        641
  78.0000        548
  78.4000        595
  78.8000        550
  79.2000        511
  79.6000        497
  80.0000        534
  80.4000        536
  80.8000        551
  81.2000        514
  81.6000        500
  82.0000        518
  82.4000        544
  82.8000        498
  83.2000        524
  83.6000        517
  84.0000        495
  84.4000        519
  84.8000        528
  85.2000        503
  85.6000        526
  86.0000        494
  86.4000        492
  86.8000        523
  87.2000        528
  87.6000        537
  88.0000        532
  88.4000        479
  88.8000        465
  89.2000        503
  89.6000        492
  90.0000        535
  90.4000        490
  90.8000        464
  91.2000        480
  91.6000        492
  92.0000        493
  92.4000        512
  92.8000        542
  93.2000        503
  93.6000        515
  94.0000        542
  94.4000        533
  94.8000        493
  95.2000        523
  95.6000        542
  96.0000        517
  96.4000        533
  96.8000        545
  97.2000        526
  97.6000        520
  98.0000        555
  98.4000        651
  98.8000       1199
  99.2000       1595
  99.6000       1358
 100.0000        792
 100.4000        583
 100.8000        548
 101.2000        521
 101.6000        518
 102.0000        542
 102.4000        506
 102.8000        500
 103.2000        512
 103.6000        523
 104.0000        512
 104.4000        531
 104.8000        498
 105.2000        507
 105.6000        507
 106.0000        499
 106.4000        504
 106.8000        502
 107.2000        499
 107.6000        514
 108.0000        517
 108.4000        520
 108.8000        549
 109.2000        527
 109.6000        548
 110.0000        569
 110.4000        471
 110.8000        495
 111.2000        516
 111.6000        552
 112.0000        537
 112.4000        555
 112.8000        496
 113.2000        503
 113.6000        506
 114.0000        543
 114.4000        542
 114.8000        517
 115.2000        526
 115.6000        497
 116.0000        528
 116.4000        495
 116.8000        518
 117.2000        556
 117.6000        492
 118.0000        516
 118.4000        487
 118.8000        521
 119.2000        509
 119.6000        513
 120.0000        522
 120.4000        492
 120.8000        548
 121.2000        468
 121.6000        519
 122.0000        470
 122.4000        514
 122.8000        528
 123.2000        556
 123.6000        565
 124.0000        539
 124.4000        560
 124.8000        519
 125.2000        516
 125.6000        531
 126.0000        508
 126.4000        518
 126.8000        515
 127.2000        517
 127.6000        542
 128.0000        534
 128.4000        513
 128.8000        553
 129.2000        523
 129.6000        480
 130.0000        513

; Data for range 2
_DRIVE = COUPLED
_STEPTIME = 0.2
_STEPSIZE = 0.1
_STEPMODE = C
_START = 40
_THETA = 20
_2THETA = 40
_KHI = 10.5
_PHI = 60
_X = -25
_Y = -25
_Z = 0
_DETECTOR = 1
; Detector type : Scintillation counter
_HV = 687
_GAIN = 80
_LLD = 0.69
_ULD = 1.866
_DETECTORSLIT = unkn
_AUX1 = 0
_AUX2 = 0
_AUX3 = 0
_TIMESTARTED = 226
_TEMP_RATE = -1
_TEMP_DELAY = -1
_KV = 35
_MA = 40
_RANGE_WL = 1.78897
_3DPLANE = 0
_V4_ADDITIONALDETECTOR = 0
_V4_D8_DIBNUM = 1
_V4_DETECTORNAME = "Detector 1"
_V4_TTLDETECTOR = None
_V4_DETECTORTYPE = 1
_V4_DETECTORFLAGS = 524545
_V4_DETECTORHV = 687
_V4_DETECTORGAIN = 80
_V4_DETECTORLLD1 = 0.69
_V4_DETECTORWW1 = 1.176
_V4_DETECTORLLD2 = 0
_V4_DETECTORWW2 = 0
_V4_DETECTORPS = 0
_V4_DETECTORDT = 0
_V4_DETECTORPILEUPTIME = 0
_V4_COUNTERS_MASK = 1
_V4_DRIVES_MASK = 0
_V4_ENCODERS_MASK = 0
_2THETACOUNTS = 1
; 2THETA  Cnt1_D1
  40.0000        534
  40.4000        584
  40.8000        531
  41.2000        523
  41.6000        556
  42.0000        537
  42.4000        531
  42.8000        520
  43.2000        532
  43.6000        495
  44.0000        556
  44.4000        521
  44.8000        535
  45.2000        487
  45.6000        548
  46.0000        509
  46.4000        499
  46.8000        554
  47.2000        516
  47.6000        502
  48.0000        544
  48.4000        525
  48.8000        495
  49.2000        542
  49.6000        503
  50.0000        543
  50.4000        472
  50.8000        539
  51.2000        557
  51.6000        797
  52.0000       1363
  52.4000       1238
  52.8000        650
  53.2000        520
  53.6000        532
  54.0000        592
  54.4000        550
  54.8000        543
  55.2000        539
  55.6000        523
  56.0000        509
  56.4000        523
  56.8000        519
  57.2000        488
  57.6000        509
  58.0000        519
  58.4000        554
  58.8000        526
  59.2000        499
  59.6000        534
  60.0000        504
  60.4000        553
  60.8000        542
  61.2000        497
  61.6000        520
  62.0000        494
  62.4000        519
  62.8000        549
  63.2000        521
  63.6000        514
  64.0000        501
  64.4000        506
  64.8000        520
  65.2000        522
  65.6000        491
  66.0000        510
  66.4000        543
  66.8000        487
  67.2000        510
  67.6000        555
  68.0000        529
  68.4000        496
  68.8000        516
  69.2000        528
  69.6000        529
  70.0000        553
  70.4000        512
  70.8000        519
  71.2000        512
  71.6000        525
  72.0000        547
  72.4000        489
  72.8000        496
  73.2000        536
  73.6000        480
  74.0000        506
  74.4000        490
  74.8000        537
  75.2000        559
  75.6000        515
  76.0000        544
  76.4000        620
  76.8000        825
  77.2000        697
  77.6000        595
  78.0000        535
  78.4000        540
  78.8000        526
  79.2000        503
  79.6000        511
  80.0000        496
  80.4000        512
  80.8000        494
  81.2000        509
  81.6000        504
  82.0000        514
  82.4000        499
  82.8000        514
  83.2000        507
  83.6000        491
  84.0000        522
  84.4000        507
  84.8000        487
  85.2000        528
  85.6000        514
  86.0000        512
  86.4000        533
  86.8000        503
  87.2000        498
  87.6000        508
  88.0000        487
  88.4000        512
  88.8000        531
  89.2000        503
  89.6000        503
  90.0000        512
  90.4000        533
  90.8000        509
  91.2000        503
  91.6000        511
  92.0000        521
  92.4000        435
  92.8000        460
  93.2000        505
  93.6000        512
  94.0000        543
  94.4000        475
  94.8000        487
  95.2000        523
  95.6000        496
  96.0000        516
  96.4000        535
  96.8000        513
  97.2000        534
  97.6000        521
  98.0000        556
  98.4000        612
  98.8000        748
  99.2000       1062
  99.6000        916
 100.0000        649
 100.4000        578
 100.8000        530
 101.2000        523
 101.6000        508
 102.0000        500
 102.4000        499
 102.8000        502
 103.2000        522
 103.6000        489
 104.0000        516
 104.4000        468
 104.8000        539
 105.2000        519
 105.6000        549
 106.0000        503
 106.4000        519
 106.8000        539
 107.2000        497
 107.6000        518
 108.0000        516
 108.4000        507
 108.8000        496
 109.2000        499
 109.6000        525
 110.0000        477
 110.4000        544
 110.8000        535
 111.2000        517
 111.6000        521
 112.0000        506
 112.4000        529
 112.8000        481
 113.2000        500
 113.6000        539
 114.0000        515
 114.4000        512
 114.8000        497
 115.2000        503
 115.6000        500
 116.0000        465
 116.4000        533
 116.8000        526
 117.2000        521
 117.6000        495
 118.0000        483
 118.4000        524
 118.8000        487
 119.2000        481
 119.6000        534
 120.0000        510
 120.4000        534
 120.8000        554
 121.2000        543
 121.6000        485
 122.0000        511
 122.4000        499
 122.8000        567
 123.2000        560
 123.6000        557
 124.0000        561
 124.4000        575
 124.8000        510
 125.2000        523
 125.6000        493
 126.0000        513
 126.4000        527
 126.8000        509
 127.2000        501
 127.6000        545
 128.0000        515
 128.4000        460
 128.8000        472
 129.2000        569
 129.6000        527
 130.0000        494

; Data for range 3
_DRIVE = COUPLED
_STEPTIME = 0.2
_STEPSIZE = 0.1
_STEPMODE = C
_START = 40
_THETA = 20
_2THETA = 40
_KHI = 18.3
_PHI = 90
_X = -25
_Y = -25
_Z = 0
_DETECTOR = 1
; Detector type : Scintillation counter
_HV = 687
_GAIN = 80
_LLD = 0.69
_ULD = 1.866
_DETECTORSLIT = unkn
_AUX1 = 0
_AUX2 = 0
_AUX3 = 0
_TIMESTARTED = 423
_TEMP_RATE = -1
_TEMP_DELAY = -1
_KV = 35
_MA = 40
_RANGE_WL = 1.78897
_3DPLANE = 0
_V4_ADDITIONALDETECTOR = 0
_V4_D8_DIBNUM = 1
_V4_DETECTORNAME = "Detector 1"
_V4_TTLDETECTOR = None
_V4_DETECTORTYPE = 1
_V4_DETECTORFLAGS = 524545
_V4_DETECTORHV = 687
_V4_DETECTORGAIN = 80
_V4_DETECTORLLD1 = 0.69
_V4_DETECTORWW1 = 1.176
_V4_DETECTORLLD2 = 0
_V4_DETECTORWW2 = 0
_V4_DETECTORPS = 0
_V4_DETECTORDT = 0
_V4_DETECTORPILEUPTIME = 0
_V4_COUNTERS_MASK = 1
_V4_DRIVES_MASK = 0
_V4_ENCODERS_MASK = 0
_2THETACOUNTS = 1
; 2THETA  Cnt1_D1
  40.0000        533
  40.4000        538
  40.8000        515
  41.2000        537
  41.6000        518
  42.0000        499
  42.4000        508
  42.8000        533
  43.2000        526
  43.6000        518
  44.0000        586
  44.4000        549
  44.8000        540
  45.2000        527
  45.6000        535
  46.0000        518
  46.4000        530
  46.8000        491
  47.2000        521
  47.6000        555
  48.0000        534
  48.4000        565
  48.8000        515
  49.2000        542
  49.6000        532
  50.0000        571
  50.4000        535
  50.8000        551
  51.2000        603
  51.6000       1303
  52.0000       2330
  52.4000       2102
  52.8000        809
  53.2000        555
  53.6000        559
  54.0000        535
  54.4000        529
  54.8000        505
  55.2000        488
  55.6000        525
  56.0000        589
  56.4000        492
  56.8000        553
  57.2000        514
  57.6000        528
  58.0000        520
  58.4000        540
  58.8000        555
  59.2000        539
  59.6000        542
  60.0000        507
  60.4000        525
  60.8000        526
  61.2000        530
  61.6000        520
  62.0000        532
  62.4000        521
  62.8000        529
  63.2000        504
  63.6000        511
  64.0000        549
  64.4000        498
  64.8000        476
  65.2000        564
  65.6000        514
  66.0000        517
  66.4000        520
  66.8000        484
  67.2000        514
  67.6000        524
  68.0000        562
  68.4000        520
  68.8000        547
  69.2000        498
  69.6000        516
  70.0000        484
  70.4000        484
  70.8000        505
  71.2000        548
  71.6000        495
  72.0000        524
  72.4000        512
  72.8000        518
  73.2000        541
  73.6000        516
  74.0000        501
  74.4000        521
  74.8000        541
  75.2000        490
  75.6000        530
  76.0000        470
  76.4000        576
  76.8000        609
  77.2000        595
  77.6000        561
  78.0000        540
  78.4000        472
  78.8000        520
  79.2000        532
  79.6000        480
  80.0000        508
  80.4000        549
  80.8000        504
  81.2000        504
  81.6000        482
  82.0000        497
  82.4000        485
  82.8000        550
  83.2000        535
  83.6000        469
  84.0000        481
  84.4000        474
  84.8000        476
  85.2000        465
  85.6000        516
  86.0000        493
  86.4000        491
  86.8000        479
  87.2000        480
  87.6000        506
  88.0000        523
  88.4000        499
  88.8000        494
  89.2000        520
  89.6000        536
  90.0000        501
  90.4000        542
  90.8000        454
  91.2000        545
  91.6000        505
  92.0000        484
  92.4000        563
  92.8000        470
  93.2000        487
  93.6000        494
  94.0000        505
  94.4000        497
  94.8000        538
  95.2000        495
  95.6000        489
  96.0000        495
  96.4000        506
  96.8000        504
  97.2000        501
  97.6000        488
  98.0000        512
  98.4000        562
  98.8000        674
  99.2000        801
  99.6000        784
 100.0000        573
 100.4000        566
 100.8000        520
 101.2000        531
 101.6000        497
 102.0000        471
 102.4000        503
 102.8000        472
 103.2000        509
 103.6000        485
 104.0000        489
 104.4000        508
 104.8000        496
 105.2000        531
 105.6000        533
 106.0000        516
 106.4000        507
 106.8000        510
 107.2000        527
 107.6000        497
 108.0000        512
 108.4000        536
 108.8000        529
 109.2000        477
 109.6000        527
 110.0000        475
 110.4000        478
 110.8000        490
 111.2000        516
 111.6000        495
 112.0000        564
 112.4000        498
 112.8000        466
 113.2000        493
 113.6000        515
 114.0000        517
 114.4000        487
 114.8000        501
 115.2000        493
 115.6000        538
 116.0000        552
 116.4000        488
 116.8000        517
 117.2000        537
 117.6000        522
 118.0000        509
 118.4000        511
 118.8000        536
 119.2000        477
 119.6000        540
 120.0000        511
 120.4000        527
 120.8000        516
 121.2000        514
 121.6000        547
[...]
  72.4000        346
  72.8000        356
  73.2000        331
  73.6000        346
  74.0000        317
  74.4000        320
  74.8000        348
  75.2000        368
  75.6000        420
  76.0000        436
  76.4000        451
  76.8000        488
  77.2000        475
  77.6000        444
  78.0000        405
  78.4000        371
  78.8000        365
  79.2000        346
  79.6000        378
  80.0000        314
  80.4000        362
  80.8000        332
  81.2000        349
  81.6000        361
  82.0000        369
  82.4000        339
  82.8000        355
  83.2000        371
  83.6000        383
  84.0000        395
  84.4000        327
  84.8000        364
  85.2000        365
  85.6000        364
  86.0000        350
  86.4000        383
  86.8000        334
  87.2000        385
  87.6000        367
  88.0000        384
  88.4000        352
  88.8000        373
  89.2000        352
  89.6000        354
  90.0000        363
  90.4000        332
  90.8000        393
  91.2000        377
  91.6000        413
  92.0000        402
  92.4000        376
  92.8000        360
  93.2000        380
  93.6000        398
  94.0000        366
  94.4000        369
  94.8000        375
  95.2000        362
  95.6000        411
  96.0000        395
  96.4000        419
  96.8000        386
  97.2000        436
  97.6000        379
  98.0000        472
  98.4000        512
  98.8000        614
  99.2000        649
  99.6000        623
 100.0000        515
 100.4000        459
 100.8000        449
 101.2000        416
 101.6000        396
 102.0000        395
 102.4000        417
 102.8000        400
 103.2000        427
 103.6000        408
 104.0000        372
 104.4000        392
 104.8000        389
 105.2000        385
 105.6000        412
 106.0000        412
 106.4000        394
 106.8000        398
 107.2000        422
 107.6000        424
 108.0000        423
 108.4000        391
 108.8000        407
 109.2000        443
 109.6000        432
 110.0000        434
 110.4000        433
 110.8000        412
 111.2000        413
 111.6000        402
 112.0000        424
 112.4000        398
 112.8000        405
 113.2000        425
 113.6000        410
 114.0000        397
 114.4000        420
 114.8000        418
 115.2000        413
 115.6000        414
 116.0000        400
 116.4000        412
 116.8000        391
 117.2000        423
 117.6000        447
 118.0000        430
 118.4000        429
 118.8000        414
 119.2000        409
 119.6000        438
 120.0000        463
 120.4000        426
 120.8000        425
 121.2000        420
 121.6000        417
 122.0000        476
 122.4000        459
 122.8000        527
 123.2000        565
 123.6000        534
 124.0000        523
 124.4000        509
 124.8000        453
 125.2000        457
 125.6000        413
 126.0000        428
 126.4000        424
 126.8000        421
 127.2000        449
 127.6000        425
 128.0000        391
 128.4000        437
 128.8000        438
 129.2000        440
 129.6000        407
 130.0000        452

; Data for range 53
_DRIVE = COUPLED
_STEPTIME = 0.2
_STEPSIZE = 0.1
_STEPMODE = C
_START = 40
_THETA = 20
_2THETA = 40
_KHI = 80
_PHI = 0
_X = -25
_Y = -25
_Z = 0
_DETECTOR = 1
; Detector type : Scintillation counter
_HV = 687
_GAIN = 80
_LLD = 0.69
_ULD = 1.866
_DETECTORSLIT = unkn
_AUX1 = 0
_AUX2 = 0
_AUX3 = 0
_TIMESTARTED = 1.03e+004
_TEMP_RATE = -1
_TEMP_DELAY = -1
_KV = 35
_MA = 40
_RANGE_WL = 1.78897
_3DPLANE = 0
_V4_ADDITIONALDETECTOR = 0
_V4_D8_DIBNUM = 1
_V4_DETECTORNAME = "Detector 1"
_V4_TTLDETECTOR = None
_V4_DETECTORTYPE = 1
_V4_DETECTORFLAGS = 524545
_V4_DETECTORHV = 687
_V4_DETECTORGAIN = 80
_V4_DETECTORLLD1 = 0.69
_V4_DETECTORWW1 = 1.176
_V4_DETECTORLLD2 = 0
_V4_DETECTORWW2 = 0
_V4_DETECTORPS = 0
_V4_DETECTORDT = 0
_V4_DETECTORPILEUPTIME = 0
_V4_COUNTERS_MASK = 1
_V4_DRIVES_MASK = 0
_V4_ENCODERS_MASK = 0
_2THETACOUNTS = 1
; 2THETA  Cnt1_D1
  40.0000        155
  40.4000        159
  40.8000        154
  41.2000        189
  41.6000        174
  42.0000        187
  42.4000        188
  42.8000        186
  43.2000        211
  43.6000        224
  44.0000        241
  44.4000        190
  44.8000        196
  45.2000        194
  45.6000        188
  46.0000        202
  46.4000        184
  46.8000        206
  47.2000        204
  47.6000        202
  48.0000        184
  48.4000        196
  48.8000        206
  49.2000        164
  49.6000        221
  50.0000        211
  50.4000        215
  50.8000        263
  51.2000        301
  51.6000        586
  52.0000        837
  52.4000       1005
  52.8000        810
  53.2000        527
  53.6000        283
  54.0000        208
  54.4000        212
  54.8000        223
  55.2000        249
  55.6000        219
  56.0000        224
  56.4000        209
  56.8000        237
  57.2000        202
  57.6000        235
  58.0000        204
  58.4000        227
  58.8000        228
  59.2000        222
  59.6000        264
  60.0000        225
  60.4000        227
  60.8000        231
  61.2000        248
  61.6000        229
  62.0000        249
  62.4000        209
  62.8000        236
  63.2000        240
  63.6000        236
  64.0000        242
  64.4000        236
  64.8000        246
  65.2000        256
  65.6000        255
  66.0000        234
  66.4000        262
  66.8000        272
  67.2000        264
  67.6000        275
  68.0000        219
  68.4000        251
  68.8000        251
  69.2000        268
  69.6000        274
  70.0000        253
  70.4000        253
  70.8000        277
  71.2000        239
  71.6000        270
  72.0000        290
  72.4000        266
  72.8000        269
  73.2000        281
  73.6000        278
  74.0000        276
  74.4000        271
  74.8000        284
  75.2000        291
  75.6000        273
  76.0000        299
  76.4000        294
  76.8000        297
  77.2000        335
  77.6000        312
  78.0000        319
  78.4000        279
  78.8000        277
  79.2000        331
  79.6000        267
  80.0000        289
  80.4000        303
  80.8000        306
  81.2000        298
  81.6000        292
  82.0000        300
  82.4000        323
  82.8000        309
  83.2000        306
  83.6000        329
  84.0000        290
  84.4000        298
  84.8000        274
  85.2000        303
  85.6000        330
  86.0000        342
  86.4000        317
  86.8000        294
  87.2000        298
  87.6000        318
  88.0000        334
  88.4000        307
  88.8000        331
  89.2000        336
  89.6000        326
  90.0000        324
  90.4000        295
  90.8000        327
  91.2000        337
  91.6000        353
  92.0000        371
  92.4000        336
  92.8000        354
  93.2000        331
  93.6000        319
  94.0000        337
  94.4000        370
  94.8000        347
  95.2000        341
  95.6000        343
  96.0000        370
  96.4000        352
  96.8000        371
  97.2000        362
  97.6000        389
  98.0000        449
  98.4000        514
  98.8000        623
  99.2000        592
  99.6000        613
 100.0000        519
 100.4000        461
 100.8000        418
 101.2000        372
 101.6000        383
 102.0000        388
 102.4000        431
 102.8000        410
 103.2000        374
 103.6000        387
 104.0000        403
 104.4000        379
 104.8000        392
 105.2000        383
 105.6000        398
 106.0000        412
 106.4000        375
 106.8000        364
 107.2000        397
 107.6000        438
 108.0000        392
 108.4000        425
 108.8000        386
 109.2000        370
 109.6000        398
 110.0000        397
 110.4000        421
 110.8000        414
 111.2000        415
 111.6000        387
 112.0000        396
 112.4000        426
 112.8000        391
 113.2000        418
 113.6000        400
 114.0000        390
 114.4000        417
 114.8000        436
 115.2000        433
 115.6000        392
 116.0000        411
 116.4000        420
 116.8000        407
 117.2000        420
 117.6000        370
 118.0000        407
 118.4000        430
 118.8000        440
 119.2000        435
 119.6000        472
 120.0000        395
 120.4000        436
 120.8000        451
 121.2000        447
 121.6000        460
 122.0000        465
 122.4000        497
 122.8000        540
 123.2000        563
 123.6000        550
 124.0000        520
 124.4000        496
 124.8000        483
 125.2000        433
 125.6000        426
 126.0000        458
 126.4000        413
 126.8000        448
 127.2000        404
 127.6000        471
 128.0000        417
 128.4000        419
 128.8000        455
 129.2000        404
 129.6000        389
 130.0000        425