File: exp_dat/old/exp_2013_11_11/22pct_-30L.uxd
; (content of file C:\DIFFDAT1\GIFT\MDL\Seawoong Lee\20131104_MV8\equal_area_maxkhi080_n8_2th40_130_x25y-25_-30L.raw)
_FILEVERSION = 3
_SAMPLE =
_+SAMPLE =
_SITE = Korea
_USER = Admin
_GONIOMETER_CODE = 20
; Goniometer : D8 theta/2theta, stage : Unknown
_SAMPLE_CHANGER_CODE = 0
_ATTACHMENTS_CODE = 0
_GONIOMETER_RADIUS = 300
_FIXED_DIVSLIT = 1
_FIXED_SAMPLESLIT = 0
_SOLLER_SLITS = 2
_FIXED_DETSLIT = 0.1
_MONOCHROMATOR = 0
; Incident beam monochromator : None
_SOLLER_SLITS_2 = 2
_THIN_FILM = N
_BETA_FILTER = Y
_FIXED_ANTISLIT = 0.6
_ANALYZER_CODE = 0
; Received beam analyzer : None
_DATEMEASURED = "07-Nov-2013 12:41:03"
_WL_UNIT = A
_WL1 = 1.78897
_WL2 = 1.79285
_WL3 = 1.62079
_WLRATIO = 0.5
_ANODE = Co
_V4_INF_CREATOR = XRDWizard
_V4_INF_CREATOR_VERSION = V2.9.0.22
_V4_INF_WIZARD_VERSION = V2.9.0.22
_V4_INF_WIZARD_ADDINS = V2.9.0.22
_V4_INF_WIZARD_DOCTYPE = XRD
_V4_INF_OSUSER = Postech
_V4_INF_USER = Admin
_V4_INF_SITE = Korea

; Data for range 1
_DRIVE = COUPLED
_STEPTIME = 0.2
_STEPSIZE = 0.1
_STEPMODE = C
_START = 40
_THETA = 20
_2THETA = 40
_KHI = 0
_PHI = 0
_X = 25
_Y = -25
_Z = 0
_DETECTOR = 1
; Detector type : Scintillation counter
_HV = 687
_GAIN = 80
_LLD = 0.69
_ULD = 1.866
_DETECTORSLIT = unkn
_AUX1 = 0
_AUX2 = 0
_AUX3 = 0
_TIMESTARTED = 13
_TEMP_RATE = -1
_TEMP_DELAY = -1
_KV = 35
_MA = 40
_RANGE_WL = 1.78897
_3DPLANE = 0
_V4_ADDITIONALDETECTOR = 0
_V4_D8_DIBNUM = 1
_V4_DETECTORNAME = "Detector 1"
_V4_TTLDETECTOR = None
_V4_DETECTORTYPE = 1
_V4_DETECTORFLAGS = 524545
_V4_DETECTORHV = 687
_V4_DETECTORGAIN = 80
_V4_DETECTORLLD1 = 0.69
_V4_DETECTORWW1 = 1.176
_V4_DETECTORLLD2 = 0
_V4_DETECTORWW2 = 0
_V4_DETECTORPS = 0
_V4_DETECTORDT = 0
_V4_DETECTORPILEUPTIME = 0
_V4_COUNTERS_MASK = 1
_V4_DRIVES_MASK = 0
_V4_ENCODERS_MASK = 0
_2THETACOUNTS = 1
; 2THETA  Cnt1_D1
  40.0000        482
  40.4000        468
  40.8000        516
  41.2000        501
  41.6000        502
  42.0000        495
  42.4000        510
  42.8000        499
  43.2000        506
  43.6000        475
  44.0000        464
  44.4000        509
  44.8000        501
  45.2000        503
  45.6000        484
  46.0000        486
  46.4000        586
  46.8000        530
  47.2000        576
  47.6000        544
  48.0000        500
  48.4000        533
  48.8000        543
  49.2000        559
  49.6000        490
  50.0000        505
  50.4000        527
  50.8000        559
  51.2000        590
  51.6000        804
  52.0000       1519
  52.4000       1428
  52.8000        642
  53.2000        534
  53.6000        524
  54.0000        508
  54.4000        551
  54.8000        518
  55.2000        561
  55.6000        518
  56.0000        567
  56.4000        555
  56.8000        514
  57.2000        548
  57.6000        510
  58.0000        529
  58.4000        532
  58.8000        548
  59.2000        540
  59.6000        534
  60.0000        518
  60.4000        513
  60.8000        540
  61.2000        554
  61.6000        518
  62.0000        498
  62.4000        504
  62.8000        479
  63.2000        498
  63.6000        549
  64.0000        509
  64.4000        522
  64.8000        515
  65.2000        462
  65.6000        500
  66.0000        521
  66.4000        520
  66.8000        552
  67.2000        508
  67.6000        537
  68.0000        492
  68.4000        542
  68.8000        519
  69.2000        517
  69.6000        555
  70.0000        541
  70.4000        495
  70.8000        525
  71.2000        549
  71.6000        478
  72.0000        533
  72.4000        532
  72.8000        543
  73.2000        489
  73.6000        502
  74.0000        521
  74.4000        505
  74.8000        530
  75.2000        554
  75.6000        541
  76.0000        558
  76.4000        828
  76.8000       1089
  77.2000       1078
  77.6000        647
  78.0000        601
  78.4000        550
  78.8000        510
  79.2000        514
  79.6000        542
  80.0000        482
  80.4000        477
  80.8000        536
  81.2000        480
  81.6000        549
  82.0000        516
  82.4000        511
  82.8000        502
  83.2000        531
  83.6000        554
  84.0000        544
  84.4000        547
  84.8000        512
  85.2000        522
  85.6000        545
  86.0000        521
  86.4000        546
  86.8000        535
  87.2000        512
  87.6000        495
  88.0000        489
  88.4000        476
  88.8000        544
  89.2000        549
  89.6000        532
  90.0000        518
  90.4000        515
  90.8000        533
  91.2000        522
  91.6000        531
  92.0000        518
  92.4000        527
  92.8000        552
  93.2000        473
  93.6000        492
  94.0000        520
  94.4000        521
  94.8000        513
  95.2000        530
  95.6000        568
  96.0000        499
  96.4000        555
  96.8000        517
  97.2000        571
  97.6000        553
  98.0000        546
  98.4000        619
  98.8000        980
  99.2000       1405
  99.6000       1310
 100.0000        733
 100.4000        567
 100.8000        538
 101.2000        547
 101.6000        582
 102.0000        513
 102.4000        505
 102.8000        520
 103.2000        530
 103.6000        511
 104.0000        470
 104.4000        489
 104.8000        530
 105.2000        512
 105.6000        508
 106.0000        501
 106.4000        493
 106.8000        489
 107.2000        522
 107.6000        507
 108.0000        535
 108.4000        561
 108.8000        534
 109.2000        535
 109.6000        519
 110.0000        581
 110.4000        545
 110.8000        534
 111.2000        489
 111.6000        528
 112.0000        544
 112.4000        500
 112.8000        519
 113.2000        520
 113.6000        507
 114.0000        513
 114.4000        515
 114.8000        508
 115.2000        491
 115.6000        503
 116.0000        532
 116.4000        513
 116.8000        516
 117.2000        496
 117.6000        539
 118.0000        503
 118.4000        520
 118.8000        533
 119.2000        502
 119.6000        501
 120.0000        505
 120.4000        497
 120.8000        538
 121.2000        526
 121.6000        547
 122.0000        510
 122.4000        544
 122.8000        567
 123.2000        585
 123.6000        614
 124.0000        548
 124.4000        484
 124.8000        536
 125.2000        493
 125.6000        526
 126.0000        504
 126.4000        486
 126.8000        549
 127.2000        531
 127.6000        509
 128.0000        520
 128.4000        534
 128.8000        523
 129.2000        484
 129.6000        558
 130.0000        498

; Data for range 2
_DRIVE = COUPLED
_STEPTIME = 0.2
_STEPSIZE = 0.1
_STEPMODE = C
_START = 40
_THETA = 20
_2THETA = 40
_KHI = 10.5
_PHI = 60
_X = 25
_Y = -25
_Z = 0
_DETECTOR = 1
; Detector type : Scintillation counter
_HV = 687
_GAIN = 80
_LLD = 0.69
_ULD = 1.866
_DETECTORSLIT = unkn
_AUX1 = 0
_AUX2 = 0
_AUX3 = 0
_TIMESTARTED = 210
_TEMP_RATE = -1
_TEMP_DELAY = -1
_KV = 35
_MA = 40
_RANGE_WL = 1.78897
_3DPLANE = 0
_V4_ADDITIONALDETECTOR = 0
_V4_D8_DIBNUM = 1
_V4_DETECTORNAME = "Detector 1"
_V4_TTLDETECTOR = None
_V4_DETECTORTYPE = 1
_V4_DETECTORFLAGS = 524545
_V4_DETECTORHV = 687
_V4_DETECTORGAIN = 80
_V4_DETECTORLLD1 = 0.69
_V4_DETECTORWW1 = 1.176
_V4_DETECTORLLD2 = 0
_V4_DETECTORWW2 = 0
_V4_DETECTORPS = 0
_V4_DETECTORDT = 0
_V4_DETECTORPILEUPTIME = 0
_V4_COUNTERS_MASK = 1
_V4_DRIVES_MASK = 0
_V4_ENCODERS_MASK = 0
_2THETACOUNTS = 1
; 2THETA  Cnt1_D1
  40.0000        518
  40.4000        528
  40.8000        496
  41.2000        543
  41.6000        472
  42.0000        560
  42.4000        504
  42.8000        566
  43.2000        521
  43.6000        510
  44.0000        536
  44.4000        543
  44.8000        545
  45.2000        555
  45.6000        547
  46.0000        508
  46.4000        535
  46.8000        540
  47.2000        563
  47.6000        548
  48.0000        539
  48.4000        564
  48.8000        522
  49.2000        546
  49.6000        527
  50.0000        531
  50.4000        495
  50.8000        527
  51.2000        595
  51.6000        929
  52.0000       1538
  52.4000       1389
  52.8000        595
  53.2000        570
  53.6000        531
  54.0000        531
  54.4000        489
  54.8000        519
  55.2000        534
  55.6000        529
  56.0000        521
  56.4000        521
  56.8000        503
  57.2000        527
  57.6000        518
  58.0000        523
  58.4000        474
  58.8000        525
  59.2000        523
  59.6000        501
  60.0000        536
  60.4000        512
  60.8000        486
  61.2000        483
  61.6000        545
  62.0000        499
  62.4000        533
  62.8000        519
  63.2000        522
  63.6000        497
  64.0000        443
  64.4000        500
  64.8000        529
  65.2000        518
  65.6000        503
  66.0000        519
  66.4000        524
  66.8000        485
  67.2000        478
  67.6000        518
  68.0000        532
  68.4000        542
  68.8000        471
  69.2000        512
  69.6000        515
  70.0000        518
  70.4000        507
  70.8000        517
  71.2000        524
  71.6000        557
  72.0000        524
  72.4000        510
  72.8000        542
  73.2000        538
  73.6000        562
  74.0000        518
  74.4000        533
  74.8000        521
  75.2000        496
  75.6000        533
  76.0000        542
  76.4000        839
  76.8000       1047
  77.2000        929
  77.6000        619
  78.0000        529
  78.4000        538
  78.8000        563
  79.2000        506
  79.6000        499
  80.0000        490
  80.4000        538
  80.8000        516
  81.2000        503
  81.6000        502
  82.0000        509
  82.4000        498
  82.8000        528
  83.2000        486
  83.6000        481
  84.0000        508
  84.4000        544
  84.8000        498
  85.2000        506
  85.6000        524
  86.0000        481
  86.4000        507
  86.8000        503
  87.2000        498
  87.6000        532
  88.0000        542
  88.4000        517
  88.8000        492
  89.2000        581
  89.6000        540
  90.0000        524
  90.4000        562
  90.8000        513
  91.2000        508
  91.6000        501
  92.0000        520
  92.4000        550
  92.8000        488
  93.2000        484
  93.6000        499
  94.0000        524
  94.4000        557
  94.8000        522
  95.2000        490
  95.6000        515
  96.0000        549
  96.4000        545
  96.8000        542
  97.2000        576
  97.6000        540
  98.0000        613
  98.4000        603
  98.8000        940
  99.2000       1292
  99.6000       1193
 100.0000        762
 100.4000        628
 100.8000        513
 101.2000        515
 101.6000        546
 102.0000        516
 102.4000        507
 102.8000        511
 103.2000        503
 103.6000        525
 104.0000        501
 104.4000        519
 104.8000        521
 105.2000        502
 105.6000        498
 106.0000        538
 106.4000        530
 106.8000        541
 107.2000        499
 107.6000        525
 108.0000        516
 108.4000        520
 108.8000        521
 109.2000        512
 109.6000        533
 110.0000        512
 110.4000        521
 110.8000        496
 111.2000        518
 111.6000        532
 112.0000        530
 112.4000        496
 112.8000        498
 113.2000        540
 113.6000        503
 114.0000        514
 114.4000        465
 114.8000        506
 115.2000        495
 115.6000        494
 116.0000        509
 116.4000        497
 116.8000        531
 117.2000        545
 117.6000        479
 118.0000        555
 118.4000        529
 118.8000        537
 119.2000        489
 119.6000        539
 120.0000        494
 120.4000        484
 120.8000        496
 121.2000        545
 121.6000        541
 122.0000        553
 122.4000        542
 122.8000        530
 123.2000        576
 123.6000        591
 124.0000        600
 124.4000        523
 124.8000        537
 125.2000        533
 125.6000        515
 126.0000        511
 126.4000        481
 126.8000        564
 127.2000        512
 127.6000        540
 128.0000        529
 128.4000        483
 128.8000        496
 129.2000        490
 129.6000        550
 130.0000        543

; Data for range 3
_DRIVE = COUPLED
_STEPTIME = 0.2
_STEPSIZE = 0.1
_STEPMODE = C
_START = 40
_THETA = 20
_2THETA = 40
_KHI = 18.3
_PHI = 90
_X = 25
_Y = -25
_Z = 0
_DETECTOR = 1
; Detector type : Scintillation counter
_HV = 687
_GAIN = 80
_LLD = 0.69
_ULD = 1.866
_DETECTORSLIT = unkn
_AUX1 = 0
_AUX2 = 0
_AUX3 = 0
_TIMESTARTED = 407
_TEMP_RATE = -1
_TEMP_DELAY = -1
_KV = 35
_MA = 40
_RANGE_WL = 1.78897
_3DPLANE = 0
_V4_ADDITIONALDETECTOR = 0
_V4_D8_DIBNUM = 1
_V4_DETECTORNAME = "Detector 1"
_V4_TTLDETECTOR = None
_V4_DETECTORTYPE = 1
_V4_DETECTORFLAGS = 524545
_V4_DETECTORHV = 687
_V4_DETECTORGAIN = 80
_V4_DETECTORLLD1 = 0.69
_V4_DETECTORWW1 = 1.176
_V4_DETECTORLLD2 = 0
_V4_DETECTORWW2 = 0
_V4_DETECTORPS = 0
_V4_DETECTORDT = 0
_V4_DETECTORPILEUPTIME = 0
_V4_COUNTERS_MASK = 1
_V4_DRIVES_MASK = 0
_V4_ENCODERS_MASK = 0
_2THETACOUNTS = 1
; 2THETA  Cnt1_D1
  40.0000        494
  40.4000        515
  40.8000        480
  41.2000        527
  41.6000        492
  42.0000        487
  42.4000        493
  42.8000        507
  43.2000        570
  43.6000        508
  44.0000        481
  44.4000        540
  44.8000        492
  45.2000        491
  45.6000        489
  46.0000        481
  46.4000        512
  46.8000        515
  47.2000        541
  47.6000        485
  48.0000        516
  48.4000        518
  48.8000        504
  49.2000        542
  49.6000        528
  50.0000        518
  50.4000        484
  50.8000        545
  51.2000        623
  51.6000       1036
  52.0000       1586
  52.4000       1455
  52.8000        619
  53.2000        561
  53.6000        514
  54.0000        522
  54.4000        556
  54.8000        555
  55.2000        525
  55.6000        508
  56.0000        498
  56.4000        537
  56.8000        548
  57.2000        544
  57.6000        516
  58.0000        476
  58.4000        531
  58.8000        533
  59.2000        544
  59.6000        535
  60.0000        512
  60.4000        547
  60.8000        530
  61.2000        476
  61.6000        502
  62.0000        537
  62.4000        507
  62.8000        515
  63.2000        498
  63.6000        523
  64.0000        524
  64.4000        523
  64.8000        521
  65.2000        492
  65.6000        522
  66.0000        507
  66.4000        554
  66.8000        530
  67.2000        544
  67.6000        517
  68.0000        503
  68.4000        494
  68.8000        503
  69.2000        515
  69.6000        531
  70.0000        493
  70.4000        517
  70.8000        519
  71.2000        558
  71.6000        486
  72.0000        531
  72.4000        529
  72.8000        533
  73.2000        480
  73.6000        522
  74.0000        523
  74.4000        518
  74.8000        521
  75.2000        551
  75.6000        550
  76.0000        553
  76.4000        844
  76.8000       1083
  77.2000        924
  77.6000        551
  78.0000        541
  78.4000        522
  78.8000        550
  79.2000        518
  79.6000        544
  80.0000        513
  80.4000        532
  80.8000        501
  81.2000        513
  81.6000        505
  82.0000        533
  82.4000        497
  82.8000        545
  83.2000        494
  83.6000        522
  84.0000        477
  84.4000        522
  84.8000        485
  85.2000        520
  85.6000        527
  86.0000        504
  86.4000        488
  86.8000        542
  87.2000        526
  87.6000        486
  88.0000        498
  88.4000        492
  88.8000        494
  89.2000        518
  89.6000        500
  90.0000        522
  90.4000        481
  90.8000        518
  91.2000        493
  91.6000        532
  92.0000        541
  92.4000        488
  92.8000        531
  93.2000        496
  93.6000        515
  94.0000        534
  94.4000        533
  94.8000        490
  95.2000        522
  95.6000        479
  96.0000        491
  96.4000        485
  96.8000        571
  97.2000        531
  97.6000        555
  98.0000        559
  98.4000        607
  98.8000        990
  99.2000       1358
  99.6000       1151
 100.0000        700
 100.4000        557
 100.8000        538
 101.2000        517
 101.6000        513
 102.0000        521
 102.4000        538
 102.8000        518
 103.2000        497
 103.6000        494
 104.0000        577
 104.4000        529
 104.8000        527
 105.2000        514
 105.6000        543
 106.0000        539
 106.4000        532
 106.8000        480
 107.2000        542
 107.6000        508
 108.0000        529
 108.4000        561
 108.8000        540
 109.2000        502
 109.6000        536
 110.0000        501
 110.4000        520
 110.8000        520
 111.2000        521
 111.6000        516
 112.0000        518
 112.4000        517
 112.8000        488
 113.2000        473
 113.6000        521
 114.0000        487
 114.4000        498
 114.8000        522
 115.2000        519
 115.6000        500
 116.0000        507
 116.4000        499
 116.8000        504
 117.2000        524
 117.6000        499
 118.0000        560
 118.4000        551
 118.8000        513
 119.2000        538
 119.6000        465
 120.0000        456
 120.4000        546
 120.8000        504
 121.2000        523
 121.6000        546
[...]
  72.4000        270
  72.8000        249
  73.2000        255
  73.6000        229
  74.0000        266
  74.4000        281
  74.8000        263
  75.2000        268
  75.6000        289
  76.0000        320
  76.4000        344
  76.8000        408
  77.2000        358
  77.6000        372
  78.0000        280
  78.4000        264
  78.8000        274
  79.2000        267
  79.6000        304
  80.0000        299
  80.4000        267
  80.8000        278
  81.2000        258
  81.6000        249
  82.0000        256
  82.4000        296
  82.8000        263
  83.2000        277
  83.6000        274
  84.0000        270
  84.4000        267
  84.8000        287
  85.2000        265
  85.6000        281
  86.0000        284
  86.4000        266
  86.8000        283
  87.2000        249
  87.6000        260
  88.0000        295
  88.4000        306
  88.8000        271
  89.2000        314
  89.6000        296
  90.0000        273
  90.4000        287
  90.8000        280
  91.2000        260
  91.6000        303
  92.0000        332
  92.4000        348
  92.8000        332
  93.2000        298
  93.6000        280
  94.0000        310
  94.4000        324
  94.8000        271
  95.2000        287
  95.6000        278
  96.0000        259
  96.4000        298
  96.8000        295
  97.2000        313
  97.6000        316
  98.0000        325
  98.4000        381
  98.8000        472
  99.2000        486
  99.6000        418
 100.0000        412
 100.4000        365
 100.8000        319
 101.2000        296
 101.6000        318
 102.0000        332
 102.4000        309
 102.8000        298
 103.2000        310
 103.6000        304
 104.0000        300
 104.4000        270
 104.8000        327
 105.2000        294
 105.6000        318
 106.0000        260
 106.4000        350
 106.8000        287
 107.2000        315
 107.6000        338
 108.0000        301
 108.4000        309
 108.8000        296
 109.2000        290
 109.6000        363
 110.0000        348
 110.4000        310
 110.8000        322
 111.2000        332
 111.6000        341
 112.0000        308
 112.4000        324
 112.8000        315
 113.2000        306
 113.6000        320
 114.0000        308
 114.4000        305
 114.8000        333
 115.2000        322
 115.6000        353
 116.0000        305
 116.4000        339
 116.8000        293
 117.2000        281
 117.6000        287
 118.0000        361
 118.4000        313
 118.8000        333
 119.2000        334
 119.6000        330
 120.0000        351
 120.4000        313
 120.8000        314
 121.2000        302
 121.6000        307
 122.0000        347
 122.4000        397
 122.8000        441
 123.2000        522
 123.6000        468
 124.0000        382
 124.4000        378
 124.8000        307
 125.2000        320
 125.6000        337
 126.0000        384
 126.4000        373
 126.8000        345
 127.2000        358
 127.6000        328
 128.0000        338
 128.4000        354
 128.8000        345
 129.2000        346
 129.6000        328
 130.0000        324

; Data for range 53
_DRIVE = COUPLED
_STEPTIME = 0.2
_STEPSIZE = 0.1
_STEPMODE = C
_START = 40
_THETA = 20
_2THETA = 40
_KHI = 80
_PHI = 0
_X = 25
_Y = -25
_Z = 0
_DETECTOR = 1
; Detector type : Scintillation counter
_HV = 687
_GAIN = 80
_LLD = 0.69
_ULD = 1.866
_DETECTORSLIT = unkn
_AUX1 = 0
_AUX2 = 0
_AUX3 = 0
_TIMESTARTED = 1.028e+004
_TEMP_RATE = -1
_TEMP_DELAY = -1
_KV = 35
_MA = 40
_RANGE_WL = 1.78897
_3DPLANE = 0
_V4_ADDITIONALDETECTOR = 0
_V4_D8_DIBNUM = 1
_V4_DETECTORNAME = "Detector 1"
_V4_TTLDETECTOR = None
_V4_DETECTORTYPE = 1
_V4_DETECTORFLAGS = 524545
_V4_DETECTORHV = 687
_V4_DETECTORGAIN = 80
_V4_DETECTORLLD1 = 0.69
_V4_DETECTORWW1 = 1.176
_V4_DETECTORLLD2 = 0
_V4_DETECTORWW2 = 0
_V4_DETECTORPS = 0
_V4_DETECTORDT = 0
_V4_DETECTORPILEUPTIME = 0
_V4_COUNTERS_MASK = 1
_V4_DRIVES_MASK = 0
_V4_ENCODERS_MASK = 0
_2THETACOUNTS = 1
; 2THETA  Cnt1_D1
  40.0000        188
  40.4000        176
  40.8000        170
  41.2000        153
  41.6000        182
  42.0000        155
  42.4000        170
  42.8000        179
  43.2000        251
  43.6000        263
  44.0000        198
  44.4000        172
  44.8000        151
  45.2000        165
  45.6000        183
  46.0000        179
  46.4000        192
  46.8000        190
  47.2000        169
  47.6000        163
  48.0000        173
  48.4000        182
  48.8000        183
  49.2000        198
  49.6000        203
  50.0000        198
  50.4000        220
  50.8000        224
  51.2000        275
  51.6000        412
  52.0000        614
  52.4000        579
  52.8000        542
  53.2000        321
  53.6000        213
  54.0000        183
  54.4000        182
  54.8000        200
  55.2000        159
  55.6000        214
  56.0000        188
  56.4000        185
  56.8000        200
  57.2000        185
  57.6000        195
  58.0000        196
  58.4000        212
  58.8000        190
  59.2000        231
  59.6000        208
  60.0000        217
  60.4000        235
  60.8000        186
  61.2000        187
  61.6000        236
  62.0000        192
  62.4000        241
  62.8000        215
  63.2000        206
  63.6000        231
  64.0000        217
  64.4000        209
  64.8000        209
  65.2000        180
  65.6000        233
  66.0000        221
  66.4000        207
  66.8000        233
  67.2000        211
  67.6000        220
  68.0000        222
  68.4000        229
  68.8000        215
  69.2000        203
  69.6000        225
  70.0000        255
  70.4000        221
  70.8000        274
  71.2000        231
  71.6000        255
  72.0000        227
  72.4000        229
  72.8000        231
  73.2000        228
  73.6000        221
  74.0000        233
  74.4000        239
  74.8000        251
  75.2000        254
  75.6000        267
  76.0000        258
  76.4000        289
  76.8000        296
  77.2000        306
  77.6000        339
  78.0000        286
  78.4000        239
  78.8000        234
  79.2000        266
  79.6000        254
  80.0000        268
  80.4000        245
  80.8000        241
  81.2000        225
  81.6000        229
  82.0000        240
  82.4000        253
  82.8000        255
  83.2000        260
  83.6000        261
  84.0000        244
  84.4000        263
  84.8000        279
  85.2000        278
  85.6000        292
  86.0000        290
  86.4000        287
  86.8000        288
  87.2000        299
  87.6000        269
  88.0000        262
  88.4000        294
  88.8000        276
  89.2000        245
  89.6000        278
  90.0000        248
  90.4000        306
  90.8000        303
  91.2000        259
  91.6000        271
  92.0000        300
  92.4000        297
  92.8000        286
  93.2000        318
  93.6000        285
  94.0000        298
  94.4000        288
  94.8000        276
  95.2000        283
  95.6000        325
  96.0000        305
  96.4000        294
  96.8000        333
  97.2000        306
  97.6000        312
  98.0000        325
  98.4000        380
  98.8000        391
  99.2000        459
  99.6000        469
 100.0000        394
 100.4000        323
 100.8000        306
 101.2000        313
 101.6000        311
 102.0000        335
 102.4000        316
 102.8000        317
 103.2000        330
 103.6000        344
 104.0000        304
 104.4000        320
 104.8000        326
 105.2000        322
 105.6000        330
 106.0000        342
 106.4000        349
 106.8000        356
 107.2000        348
 107.6000        360
 108.0000        319
 108.4000        324
 108.8000        325
 109.2000        357
 109.6000        367
 110.0000        322
 110.4000        328
 110.8000        341
 111.2000        316
 111.6000        345
 112.0000        353
 112.4000        330
 112.8000        336
 113.2000        366
 113.6000        367
 114.0000        326
 114.4000        342
 114.8000        371
 115.2000        356
 115.6000        355
 116.0000        347
 116.4000        391
 116.8000        380
 117.2000        346
 117.6000        346
 118.0000        370
 118.4000        358
 118.8000        323
 119.2000        373
 119.6000        343
 120.0000        350
 120.4000        357
 120.8000        366
 121.2000        326
 121.6000        365
 122.0000        391
 122.4000        427
 122.8000        451
 123.2000        407
 123.6000        403
 124.0000        423
 124.4000        387
 124.8000        370
 125.2000        371
 125.6000        363
 126.0000        355
 126.4000        354
 126.8000        365
 127.2000        373
 127.6000        384
 128.0000        338
 128.4000        347
 128.8000        359
 129.2000        356
 129.6000        363
 130.0000        362