File: exp_dat/old/exp_2013_11_11/23pct_-30G.uxd
; (content of file C:\DIFFDAT1\GIFT\MDL\Seawoong Lee\20131104_MV8\equal_area_maxkhi080_n8_2th40_130_x00y25_-30g.raw)
_FILEVERSION = 3
_SAMPLE =
_+SAMPLE =
_SITE = Korea
_USER = Admin
_GONIOMETER_CODE = 20
; Goniometer : D8 theta/2theta, stage : Unknown
_SAMPLE_CHANGER_CODE = 0
_ATTACHMENTS_CODE = 0
_GONIOMETER_RADIUS = 300
_FIXED_DIVSLIT = 1
_FIXED_SAMPLESLIT = 0
_SOLLER_SLITS = 2
_FIXED_DETSLIT = 0.1
_MONOCHROMATOR = 0
; Incident beam monochromator : None
_SOLLER_SLITS_2 = 2
_THIN_FILM = N
_BETA_FILTER = Y
_FIXED_ANTISLIT = 0.6
_ANALYZER_CODE = 0
; Received beam analyzer : None
_DATEMEASURED = "08-Nov-2013 03:14:11"
_WL_UNIT = A
_WL1 = 1.78897
_WL2 = 1.79285
_WL3 = 1.62079
_WLRATIO = 0.5
_ANODE = Co
_V4_INF_CREATOR = XRDWizard
_V4_INF_CREATOR_VERSION = V2.9.0.22
_V4_INF_WIZARD_VERSION = V2.9.0.22
_V4_INF_WIZARD_ADDINS = V2.9.0.22
_V4_INF_WIZARD_DOCTYPE = XRD
_V4_INF_OSUSER = Postech
_V4_INF_USER = Admin
_V4_INF_SITE = Korea

; Data for range 1
_DRIVE = COUPLED
_STEPTIME = 0.2
_STEPSIZE = 0.1
_STEPMODE = C
_START = 40
_THETA = 20
_2THETA = 40
_KHI = 0
_PHI = 0
_X = 0
_Y = 25
_Z = 0
_DETECTOR = 1
; Detector type : Scintillation counter
_HV = 687
_GAIN = 80
_LLD = 0.69
_ULD = 1.866
_DETECTORSLIT = unkn
_AUX1 = 0
_AUX2 = 0
_AUX3 = 0
_TIMESTARTED = 28
_TEMP_RATE = -1
_TEMP_DELAY = -1
_KV = 35
_MA = 40
_RANGE_WL = 1.78897
_3DPLANE = 0
_V4_ADDITIONALDETECTOR = 0
_V4_D8_DIBNUM = 1
_V4_DETECTORNAME = "Detector 1"
_V4_TTLDETECTOR = None
_V4_DETECTORTYPE = 1
_V4_DETECTORFLAGS = 524545
_V4_DETECTORHV = 687
_V4_DETECTORGAIN = 80
_V4_DETECTORLLD1 = 0.69
_V4_DETECTORWW1 = 1.176
_V4_DETECTORLLD2 = 0
_V4_DETECTORWW2 = 0
_V4_DETECTORPS = 0
_V4_DETECTORDT = 0
_V4_DETECTORPILEUPTIME = 0
_V4_COUNTERS_MASK = 1
_V4_DRIVES_MASK = 0
_V4_ENCODERS_MASK = 0
_2THETACOUNTS = 1
; 2THETA  Cnt1_D1
  40.0000        454
  40.4000        401
  40.8000        443
  41.2000        481
  41.6000        443
  42.0000        432
  42.4000        496
  42.8000        462
  43.2000        453
  43.6000        494
  44.0000        455
  44.4000        490
  44.8000        458
  45.2000        498
  45.6000        464
  46.0000        514
  46.4000        477
  46.8000        463
  47.2000        463
  47.6000        452
  48.0000        494
  48.4000        513
  48.8000        509
  49.2000        509
  49.6000        502
  50.0000        477
  50.4000        518
  50.8000        507
  51.2000        483
  51.6000        661
  52.0000       1083
  52.4000       1049
  52.8000        645
  53.2000        545
  53.6000        499
  54.0000        520
  54.4000        531
  54.8000        445
  55.2000        520
  55.6000        503
  56.0000        532
  56.4000        496
  56.8000        546
  57.2000        505
  57.6000        489
  58.0000        532
  58.4000        473
  58.8000        536
  59.2000        505
  59.6000        520
  60.0000        463
  60.4000        511
  60.8000        531
  61.2000        483
  61.6000        492
  62.0000        518
  62.4000        497
  62.8000        470
  63.2000        521
  63.6000        495
  64.0000        521
  64.4000        510
  64.8000        519
  65.2000        523
  65.6000        503
  66.0000        503
  66.4000        471
  66.8000        510
  67.2000        525
  67.6000        508
  68.0000        508
  68.4000        482
  68.8000        518
  69.2000        497
  69.6000        525
  70.0000        486
  70.4000        492
  70.8000        512
  71.2000        464
  71.6000        480
  72.0000        498
  72.4000        517
  72.8000        524
  73.2000        522
  73.6000        511
  74.0000        499
  74.4000        484
  74.8000        545
  75.2000        512
  75.6000        550
  76.0000        680
  76.4000       1048
  76.8000       1298
  77.2000       1017
  77.6000        650
  78.0000        541
  78.4000        511
  78.8000        492
  79.2000        495
  79.6000        550
  80.0000        476
  80.4000        509
  80.8000        468
  81.2000        531
  81.6000        499
  82.0000        456
  82.4000        541
  82.8000        542
  83.2000        511
  83.6000        507
  84.0000        490
  84.4000        496
  84.8000        493
  85.2000        485
  85.6000        562
  86.0000        523
  86.4000        485
  86.8000        500
  87.2000        477
  87.6000        488
  88.0000        491
  88.4000        504
  88.8000        500
  89.2000        496
  89.6000        521
  90.0000        510
  90.4000        502
  90.8000        509
  91.2000        489
  91.6000        510
  92.0000        522
  92.4000        491
  92.8000        478
  93.2000        523
  93.6000        545
  94.0000        512
  94.4000        473
  94.8000        511
  95.2000        529
  95.6000        510
  96.0000        524
  96.4000        463
  96.8000        541
  97.2000        505
  97.6000        520
  98.0000        598
  98.4000        718
  98.8000       1216
  99.2000       1604
  99.6000       1329
 100.0000        790
 100.4000        652
 100.8000        549
 101.2000        528
 101.6000        506
 102.0000        543
 102.4000        508
 102.8000        507
 103.2000        503
 103.6000        542
 104.0000        531
 104.4000        508
 104.8000        499
 105.2000        505
 105.6000        502
 106.0000        511
 106.4000        556
 106.8000        507
 107.2000        511
 107.6000        525
 108.0000        538
 108.4000        518
 108.8000        487
 109.2000        507
 109.6000        521
 110.0000        475
 110.4000        473
 110.8000        550
 111.2000        498
 111.6000        504
 112.0000        535
 112.4000        483
 112.8000        569
 113.2000        503
 113.6000        494
 114.0000        464
 114.4000        516
 114.8000        515
 115.2000        474
 115.6000        499
 116.0000        499
 116.4000        491
 116.8000        490
 117.2000        536
 117.6000        532
 118.0000        539
 118.4000        517
 118.8000        481
 119.2000        503
 119.6000        526
 120.0000        486
 120.4000        517
 120.8000        515
 121.2000        514
 121.6000        480
 122.0000        560
 122.4000        546
 122.8000        519
 123.2000        536
 123.6000        574
 124.0000        512
 124.4000        533
 124.8000        517
 125.2000        501
 125.6000        466
 126.0000        532
 126.4000        503
 126.8000        559
 127.2000        527
 127.6000        497
 128.0000        444
 128.4000        486
 128.8000        540
 129.2000        489
 129.6000        525
 130.0000        471

; Data for range 2
_DRIVE = COUPLED
_STEPTIME = 0.2
_STEPSIZE = 0.1
_STEPMODE = C
_START = 40
_THETA = 20
_2THETA = 40
_KHI = 10.5
_PHI = 60
_X = 0
_Y = 25
_Z = 0
_DETECTOR = 1
; Detector type : Scintillation counter
_HV = 687
_GAIN = 80
_LLD = 0.69
_ULD = 1.866
_DETECTORSLIT = unkn
_AUX1 = 0
_AUX2 = 0
_AUX3 = 0
_TIMESTARTED = 225
_TEMP_RATE = -1
_TEMP_DELAY = -1
_KV = 35
_MA = 40
_RANGE_WL = 1.78897
_3DPLANE = 0
_V4_ADDITIONALDETECTOR = 0
_V4_D8_DIBNUM = 1
_V4_DETECTORNAME = "Detector 1"
_V4_TTLDETECTOR = None
_V4_DETECTORTYPE = 1
_V4_DETECTORFLAGS = 524545
_V4_DETECTORHV = 687
_V4_DETECTORGAIN = 80
_V4_DETECTORLLD1 = 0.69
_V4_DETECTORWW1 = 1.176
_V4_DETECTORLLD2 = 0
_V4_DETECTORWW2 = 0
_V4_DETECTORPS = 0
_V4_DETECTORDT = 0
_V4_DETECTORPILEUPTIME = 0
_V4_COUNTERS_MASK = 1
_V4_DRIVES_MASK = 0
_V4_ENCODERS_MASK = 0
_2THETACOUNTS = 1
; 2THETA  Cnt1_D1
  40.0000        557
  40.4000        489
  40.8000        502
  41.2000        560
  41.6000        521
  42.0000        514
  42.4000        536
  42.8000        521
  43.2000        514
  43.6000        516
  44.0000        530
  44.4000        529
  44.8000        562
  45.2000        565
  45.6000        532
  46.0000        510
  46.4000        493
  46.8000        532
  47.2000        586
  47.6000        529
  48.0000        505
  48.4000        564
  48.8000        547
  49.2000        504
  49.6000        478
  50.0000        535
  50.4000        546
  50.8000        529
  51.2000        552
  51.6000        794
  52.0000       1420
  52.4000       1292
  52.8000        625
  53.2000        533
  53.6000        518
  54.0000        497
  54.4000        472
  54.8000        506
  55.2000        534
  55.6000        535
  56.0000        545
  56.4000        507
  56.8000        510
  57.2000        576
  57.6000        567
  58.0000        537
  58.4000        500
  58.8000        534
  59.2000        514
  59.6000        486
  60.0000        552
  60.4000        511
  60.8000        506
  61.2000        504
  61.6000        501
  62.0000        489
  62.4000        516
  62.8000        498
  63.2000        536
  63.6000        561
  64.0000        529
  64.4000        506
  64.8000        547
  65.2000        492
  65.6000        544
  66.0000        561
  66.4000        532
  66.8000        523
  67.2000        509
  67.6000        537
  68.0000        529
  68.4000        454
  68.8000        537
  69.2000        488
  69.6000        527
  70.0000        510
  70.4000        524
  70.8000        485
  71.2000        535
  71.6000        462
  72.0000        504
  72.4000        532
  72.8000        492
  73.2000        516
  73.6000        517
  74.0000        519
  74.4000        495
  74.8000        524
  75.2000        516
  75.6000        516
  76.0000        533
  76.4000        611
  76.8000        721
  77.2000        633
  77.6000        526
  78.0000        505
  78.4000        519
  78.8000        456
  79.2000        497
  79.6000        494
  80.0000        496
  80.4000        496
  80.8000        507
  81.2000        504
  81.6000        471
  82.0000        496
  82.4000        491
  82.8000        517
  83.2000        529
  83.6000        513
  84.0000        481
  84.4000        500
  84.8000        528
  85.2000        547
  85.6000        528
  86.0000        543
  86.4000        533
  86.8000        488
  87.2000        514
  87.6000        535
  88.0000        486
  88.4000        504
  88.8000        519
  89.2000        489
  89.6000        498
  90.0000        532
  90.4000        514
  90.8000        500
  91.2000        528
  91.6000        572
  92.0000        490
  92.4000        514
  92.8000        509
  93.2000        487
  93.6000        513
  94.0000        493
  94.4000        499
  94.8000        497
  95.2000        541
  95.6000        514
  96.0000        498
  96.4000        487
  96.8000        553
  97.2000        534
  97.6000        507
  98.0000        536
  98.4000        586
  98.8000        721
  99.2000        888
  99.6000        848
 100.0000        634
 100.4000        572
 100.8000        502
 101.2000        525
 101.6000        510
 102.0000        530
 102.4000        492
 102.8000        529
 103.2000        467
 103.6000        491
 104.0000        510
 104.4000        511
 104.8000        519
 105.2000        494
 105.6000        534
 106.0000        461
 106.4000        547
 106.8000        503
 107.2000        516
 107.6000        499
 108.0000        530
 108.4000        501
 108.8000        526
 109.2000        492
 109.6000        505
 110.0000        481
 110.4000        538
 110.8000        545
 111.2000        510
 111.6000        504
 112.0000        505
 112.4000        554
 112.8000        464
 113.2000        513
 113.6000        530
 114.0000        512
 114.4000        538
 114.8000        512
 115.2000        537
 115.6000        547
 116.0000        486
 116.4000        521
 116.8000        519
 117.2000        445
 117.6000        487
 118.0000        458
 118.4000        497
 118.8000        525
 119.2000        503
 119.6000        510
 120.0000        528
 120.4000        494
 120.8000        511
 121.2000        515
 121.6000        537
 122.0000        502
 122.4000        522
 122.8000        559
 123.2000        565
 123.6000        563
 124.0000        534
 124.4000        548
 124.8000        509
 125.2000        505
 125.6000        520
 126.0000        544
 126.4000        484
 126.8000        465
 127.2000        465
 127.6000        465
 128.0000        509
 128.4000        502
 128.8000        500
 129.2000        462
 129.6000        488
 130.0000        523

; Data for range 3
_DRIVE = COUPLED
_STEPTIME = 0.2
_STEPSIZE = 0.1
_STEPMODE = C
_START = 40
_THETA = 20
_2THETA = 40
_KHI = 18.3
_PHI = 90
_X = 0
_Y = 25
_Z = 0
_DETECTOR = 1
; Detector type : Scintillation counter
_HV = 687
_GAIN = 80
_LLD = 0.69
_ULD = 1.866
_DETECTORSLIT = unkn
_AUX1 = 0
_AUX2 = 0
_AUX3 = 0
_TIMESTARTED = 422
_TEMP_RATE = -1
_TEMP_DELAY = -1
_KV = 35
_MA = 40
_RANGE_WL = 1.78897
_3DPLANE = 0
_V4_ADDITIONALDETECTOR = 0
_V4_D8_DIBNUM = 1
_V4_DETECTORNAME = "Detector 1"
_V4_TTLDETECTOR = None
_V4_DETECTORTYPE = 1
_V4_DETECTORFLAGS = 524545
_V4_DETECTORHV = 687
_V4_DETECTORGAIN = 80
_V4_DETECTORLLD1 = 0.69
_V4_DETECTORWW1 = 1.176
_V4_DETECTORLLD2 = 0
_V4_DETECTORWW2 = 0
_V4_DETECTORPS = 0
_V4_DETECTORDT = 0
_V4_DETECTORPILEUPTIME = 0
_V4_COUNTERS_MASK = 1
_V4_DRIVES_MASK = 0
_V4_ENCODERS_MASK = 0
_2THETACOUNTS = 1
; 2THETA  Cnt1_D1
  40.0000        525
  40.4000        513
  40.8000        555
  41.2000        526
  41.6000        578
  42.0000        518
  42.4000        499
  42.8000        545
  43.2000        541
  43.6000        544
  44.0000        541
  44.4000        549
  44.8000        501
  45.2000        496
  45.6000        538
  46.0000        534
  46.4000        546
  46.8000        560
  47.2000        510
  47.6000        538
  48.0000        549
  48.4000        535
  48.8000        530
  49.2000        488
  49.6000        510
  50.0000        569
  50.4000        534
  50.8000        568
  51.2000        694
  51.6000       1432
  52.0000       2636
  52.4000       2315
  52.8000        843
  53.2000        592
  53.6000        588
  54.0000        559
  54.4000        557
  54.8000        559
  55.2000        546
  55.6000        570
  56.0000        535
  56.4000        507
  56.8000        529
  57.2000        551
  57.6000        598
  58.0000        561
  58.4000        516
  58.8000        496
  59.2000        559
  59.6000        525
  60.0000        504
  60.4000        552
  60.8000        552
  61.2000        533
  61.6000        512
  62.0000        527
  62.4000        536
  62.8000        531
  63.2000        526
  63.6000        533
  64.0000        528
  64.4000        535
  64.8000        502
  65.2000        495
  65.6000        547
  66.0000        488
  66.4000        488
  66.8000        528
  67.2000        527
  67.6000        548
  68.0000        523
  68.4000        485
  68.8000        529
  69.2000        501
  69.6000        536
  70.0000        520
  70.4000        521
  70.8000        491
  71.2000        516
  71.6000        485
  72.0000        492
  72.4000        472
  72.8000        504
  73.2000        522
  73.6000        482
  74.0000        529
  74.4000        488
  74.8000        496
  75.2000        464
  75.6000        483
  76.0000        493
  76.4000        553
  76.8000        602
  77.2000        549
  77.6000        525
  78.0000        529
  78.4000        465
  78.8000        499
  79.2000        529
  79.6000        507
  80.0000        483
  80.4000        477
  80.8000        497
  81.2000        458
  81.6000        469
  82.0000        504
  82.4000        476
  82.8000        516
  83.2000        467
  83.6000        527
  84.0000        501
  84.4000        512
  84.8000        495
  85.2000        507
  85.6000        495
  86.0000        489
  86.4000        536
  86.8000        505
  87.2000        525
  87.6000        467
  88.0000        516
  88.4000        513
  88.8000        507
  89.2000        497
  89.6000        529
  90.0000        548
  90.4000        515
  90.8000        509
  91.2000        465
  91.6000        528
  92.0000        505
  92.4000        501
  92.8000        481
  93.2000        521
  93.6000        523
  94.0000        472
  94.4000        486
  94.8000        531
  95.2000        531
  95.6000        508
  96.0000        505
  96.4000        504
  96.8000        484
  97.2000        474
  97.6000        502
  98.0000        511
  98.4000        560
  98.8000        636
  99.2000        860
  99.6000        756
 100.0000        602
 100.4000        533
 100.8000        525
 101.2000        497
 101.6000        548
 102.0000        542
 102.4000        542
 102.8000        503
 103.2000        515
 103.6000        533
 104.0000        505
 104.4000        506
 104.8000        539
 105.2000        490
 105.6000        514
 106.0000        479
 106.4000        501
 106.8000        471
 107.2000        508
 107.6000        540
 108.0000        509
 108.4000        529
 108.8000        500
 109.2000        510
 109.6000        494
 110.0000        483
 110.4000        510
 110.8000        482
 111.2000        471
 111.6000        483
 112.0000        518
 112.4000        493
 112.8000        473
 113.2000        510
 113.6000        500
 114.0000        507
 114.4000        511
 114.8000        509
 115.2000        514
 115.6000        533
 116.0000        474
 116.4000        495
 116.8000        510
 117.2000        547
 117.6000        509
 118.0000        533
 118.4000        522
 118.8000        508
 119.2000        513
 119.6000        505
 120.0000        531
 120.4000        517
 120.8000        524
 121.2000        520
 121.6000        525
[...]
  72.4000        326
  72.8000        346
  73.2000        346
  73.6000        331
  74.0000        314
  74.4000        331
  74.8000        350
  75.2000        372
  75.6000        405
  76.0000        372
  76.4000        422
  76.8000        469
  77.2000        475
  77.6000        448
  78.0000        382
  78.4000        325
  78.8000        363
  79.2000        308
  79.6000        350
  80.0000        352
  80.4000        382
  80.8000        341
  81.2000        343
  81.6000        345
  82.0000        341
  82.4000        345
  82.8000        347
  83.2000        357
  83.6000        331
  84.0000        397
  84.4000        334
  84.8000        358
  85.2000        356
  85.6000        371
  86.0000        364
  86.4000        328
  86.8000        345
  87.2000        314
  87.6000        392
  88.0000        334
  88.4000        362
  88.8000        337
  89.2000        358
  89.6000        348
  90.0000        405
  90.4000        378
  90.8000        360
  91.2000        391
  91.6000        400
  92.0000        380
  92.4000        375
  92.8000        378
  93.2000        378
  93.6000        357
  94.0000        361
  94.4000        346
  94.8000        374
  95.2000        356
  95.6000        396
  96.0000        381
  96.4000        382
  96.8000        382
  97.2000        386
  97.6000        409
  98.0000        435
  98.4000        543
  98.8000        606
  99.2000        681
  99.6000        583
 100.0000        556
 100.4000        416
 100.8000        402
 101.2000        406
 101.6000        416
 102.0000        377
 102.4000        446
 102.8000        392
 103.2000        367
 103.6000        372
 104.0000        371
 104.4000        399
 104.8000        441
 105.2000        429
 105.6000        417
 106.0000        382
 106.4000        412
 106.8000        353
 107.2000        368
 107.6000        386
 108.0000        433
 108.4000        416
 108.8000        376
 109.2000        416
 109.6000        414
 110.0000        383
 110.4000        418
 110.8000        431
 111.2000        400
 111.6000        385
 112.0000        399
 112.4000        374
 112.8000        391
 113.2000        411
 113.6000        366
 114.0000        450
 114.4000        393
 114.8000        432
 115.2000        405
 115.6000        379
 116.0000        433
 116.4000        393
 116.8000        376
 117.2000        419
 117.6000        410
 118.0000        425
 118.4000        402
 118.8000        424
 119.2000        401
 119.6000        428
 120.0000        394
 120.4000        430
 120.8000        453
 121.2000        432
 121.6000        425
 122.0000        429
 122.4000        479
 122.8000        521
 123.2000        505
 123.6000        512
 124.0000        523
 124.4000        433
 124.8000        442
 125.2000        432
 125.6000        409
 126.0000        422
 126.4000        449
 126.8000        409
 127.2000        423
 127.6000        449
 128.0000        432
 128.4000        416
 128.8000        419
 129.2000        411
 129.6000        442
 130.0000        414

; Data for range 53
_DRIVE = COUPLED
_STEPTIME = 0.2
_STEPSIZE = 0.1
_STEPMODE = C
_START = 40
_THETA = 20
_2THETA = 40
_KHI = 80
_PHI = 0
_X = 0
_Y = 25
_Z = 0
_DETECTOR = 1
; Detector type : Scintillation counter
_HV = 687
_GAIN = 80
_LLD = 0.69
_ULD = 1.866
_DETECTORSLIT = unkn
_AUX1 = 0
_AUX2 = 0
_AUX3 = 0
_TIMESTARTED = 1.029e+004
_TEMP_RATE = -1
_TEMP_DELAY = -1
_KV = 35
_MA = 40
_RANGE_WL = 1.78897
_3DPLANE = 0
_V4_ADDITIONALDETECTOR = 0
_V4_D8_DIBNUM = 1
_V4_DETECTORNAME = "Detector 1"
_V4_TTLDETECTOR = None
_V4_DETECTORTYPE = 1
_V4_DETECTORFLAGS = 524545
_V4_DETECTORHV = 687
_V4_DETECTORGAIN = 80
_V4_DETECTORLLD1 = 0.69
_V4_DETECTORWW1 = 1.176
_V4_DETECTORLLD2 = 0
_V4_DETECTORWW2 = 0
_V4_DETECTORPS = 0
_V4_DETECTORDT = 0
_V4_DETECTORPILEUPTIME = 0
_V4_COUNTERS_MASK = 1
_V4_DRIVES_MASK = 0
_V4_ENCODERS_MASK = 0
_2THETACOUNTS = 1
; 2THETA  Cnt1_D1
  40.0000        156
  40.4000        185
  40.8000        183
  41.2000        156
  41.6000        173
  42.0000        155
  42.4000        189
  42.8000        238
  43.2000        281
  43.6000        216
  44.0000        220
  44.4000        157
  44.8000        187
  45.2000        172
  45.6000        187
  46.0000        173
  46.4000        176
  46.8000        182
  47.2000        163
  47.6000        155
  48.0000        184
  48.4000        183
  48.8000        175
  49.2000        167
  49.6000        202
  50.0000        235
  50.4000        229
  50.8000        234
  51.2000        203
  51.6000        341
  52.0000        629
  52.4000        838
  52.8000        727
  53.2000        440
  53.6000        258
  54.0000        191
  54.4000        181
  54.8000        163
  55.2000        199
  55.6000        185
  56.0000        182
  56.4000        219
  56.8000        177
  57.2000        215
  57.6000        220
  58.0000        202
  58.4000        167
  58.8000        200
  59.2000        184
  59.6000        201
  60.0000        194
  60.4000        183
  60.8000        221
  61.2000        223
  61.6000        204
  62.0000        191
  62.4000        190
  62.8000        201
  63.2000        215
  63.6000        199
  64.0000        224
  64.4000        209
  64.8000        185
  65.2000        206
  65.6000        217
  66.0000        199
  66.4000        195
  66.8000        192
  67.2000        183
  67.6000        229
  68.0000        193
  68.4000        215
  68.8000        199
  69.2000        231
  69.6000        234
  70.0000        226
  70.4000        236
  70.8000        228
  71.2000        230
  71.6000        213
  72.0000        213
  72.4000        215
  72.8000        211
  73.2000        237
  73.6000        233
  74.0000        217
  74.4000        250
  74.8000        220
  75.2000        245
  75.6000        232
  76.0000        221
  76.4000        238
  76.8000        280
  77.2000        274
  77.6000        282
  78.0000        299
  78.4000        218
  78.8000        237
  79.2000        246
  79.6000        231
  80.0000        215
  80.4000        234
  80.8000        219
  81.2000        277
  81.6000        226
  82.0000        236
  82.4000        258
  82.8000        290
  83.2000        249
  83.6000        228
  84.0000        281
  84.4000        235
  84.8000        234
  85.2000        265
  85.6000        215
  86.0000        265
  86.4000        276
  86.8000        272
  87.2000        248
  87.6000        245
  88.0000        252
  88.4000        284
  88.8000        272
  89.2000        276
  89.6000        262
  90.0000        261
  90.4000        229
  90.8000        288
  91.2000        259
  91.6000        273
  92.0000        267
  92.4000        293
  92.8000        277
  93.2000        310
  93.6000        256
  94.0000        313
  94.4000        270
  94.8000        306
  95.2000        290
  95.6000        303
  96.0000        266
  96.4000        278
  96.8000        308
  97.2000        270
  97.6000        324
  98.0000        342
  98.4000        348
  98.8000        523
  99.2000        565
  99.6000        516
 100.0000        489
 100.4000        407
 100.8000        323
 101.2000        287
 101.6000        319
 102.0000        311
 102.4000        297
 102.8000        294
 103.2000        313
 103.6000        304
 104.0000        308
 104.4000        315
 104.8000        348
 105.2000        360
 105.6000        311
 106.0000        318
 106.4000        311
 106.8000        327
 107.2000        338
 107.6000        314
 108.0000        333
 108.4000        339
 108.8000        370
 109.2000        349
 109.6000        335
 110.0000        357
 110.4000        335
 110.8000        352
 111.2000        343
 111.6000        326
 112.0000        360
 112.4000        374
 112.8000        372
 113.2000        347
 113.6000        398
 114.0000        350
 114.4000        388
 114.8000        352
 115.2000        341
 115.6000        383
 116.0000        322
 116.4000        369
 116.8000        405
 117.2000        393
 117.6000        405
 118.0000        349
 118.4000        360
 118.8000        396
 119.2000        354
 119.6000        418
 120.0000        415
 120.4000        408
 120.8000        396
 121.2000        379
 121.6000        429
 122.0000        449
 122.4000        457
 122.8000        515
 123.2000        545
 123.6000        549
 124.0000        493
 124.4000        441
 124.8000        445
 125.2000        407
 125.6000        384
 126.0000        382
 126.4000        432
 126.8000        404
 127.2000        408
 127.6000        392
 128.0000        421
 128.4000        418
 128.8000        409
 129.2000        422
 129.6000        408
 130.0000        440