File: exp_dat/old/exp_2013_11_11/24pct_-40L.uxd
; (content of file C:\DIFFDAT1\GIFT\MDL\Seawoong Lee\20131104_MV8\equal_area_maxkhi080_n8_2th40_130_x25y00_-40L.raw)
_FILEVERSION = 3
_SAMPLE =
_+SAMPLE =
_SITE = Korea
_USER = Admin
_GONIOMETER_CODE = 20
; Goniometer : D8 theta/2theta, stage : Unknown
_SAMPLE_CHANGER_CODE = 0
_ATTACHMENTS_CODE = 0
_GONIOMETER_RADIUS = 300
_FIXED_DIVSLIT = 1
_FIXED_SAMPLESLIT = 0
_SOLLER_SLITS = 2
_FIXED_DETSLIT = 0.1
_MONOCHROMATOR = 0
; Incident beam monochromator : None
_SOLLER_SLITS_2 = 2
_THIN_FILM = N
_BETA_FILTER = Y
_FIXED_ANTISLIT = 0.6
_ANALYZER_CODE = 0
; Received beam analyzer : None
_DATEMEASURED = "07-Nov-2013 15:35:40"
_WL_UNIT = A
_WL1 = 1.78897
_WL2 = 1.79285
_WL3 = 1.62079
_WLRATIO = 0.5
_ANODE = Co
_V4_INF_CREATOR = XRDWizard
_V4_INF_CREATOR_VERSION = V2.9.0.22
_V4_INF_WIZARD_VERSION = V2.9.0.22
_V4_INF_WIZARD_ADDINS = V2.9.0.22
_V4_INF_WIZARD_DOCTYPE = XRD
_V4_INF_OSUSER = Postech
_V4_INF_USER = Admin
_V4_INF_SITE = Korea

; Data for range 1
_DRIVE = COUPLED
_STEPTIME = 0.2
_STEPSIZE = 0.1
_STEPMODE = C
_START = 40
_THETA = 20
_2THETA = 40
_KHI = 0
_PHI = 0
_X = 25
_Y = 0
_Z = 0
_DETECTOR = 1
; Detector type : Scintillation counter
_HV = 687
_GAIN = 80
_LLD = 0.69
_ULD = 1.866
_DETECTORSLIT = unkn
_AUX1 = 0
_AUX2 = 0
_AUX3 = 0
_TIMESTARTED = 28
_TEMP_RATE = -1
_TEMP_DELAY = -1
_KV = 35
_MA = 40
_RANGE_WL = 1.78897
_3DPLANE = 0
_V4_ADDITIONALDETECTOR = 0
_V4_D8_DIBNUM = 1
_V4_DETECTORNAME = "Detector 1"
_V4_TTLDETECTOR = None
_V4_DETECTORTYPE = 1
_V4_DETECTORFLAGS = 524545
_V4_DETECTORHV = 687
_V4_DETECTORGAIN = 80
_V4_DETECTORLLD1 = 0.69
_V4_DETECTORWW1 = 1.176
_V4_DETECTORLLD2 = 0
_V4_DETECTORWW2 = 0
_V4_DETECTORPS = 0
_V4_DETECTORDT = 0
_V4_DETECTORPILEUPTIME = 0
_V4_COUNTERS_MASK = 1
_V4_DRIVES_MASK = 0
_V4_ENCODERS_MASK = 0
_2THETACOUNTS = 1
; 2THETA  Cnt1_D1
  40.0000        515
  40.4000        556
  40.8000        540
  41.2000        557
  41.6000        560
  42.0000        550
  42.4000        527
  42.8000        549
  43.2000        535
  43.6000        579
  44.0000        532
  44.4000        546
  44.8000        528
  45.2000        537
  45.6000        548
  46.0000        528
  46.4000        551
  46.8000        551
  47.2000        515
  47.6000        564
  48.0000        601
  48.4000        537
  48.8000        515
  49.2000        531
  49.6000        550
  50.0000        486
  50.4000        527
  50.8000        556
  51.2000        604
  51.6000        892
  52.0000       1700
  52.4000       1707
  52.8000        684
  53.2000        545
  53.6000        515
  54.0000        500
  54.4000        520
  54.8000        577
  55.2000        519
  55.6000        517
  56.0000        503
  56.4000        562
  56.8000        497
  57.2000        549
  57.6000        504
  58.0000        532
  58.4000        504
  58.8000        544
  59.2000        554
  59.6000        543
  60.0000        568
  60.4000        531
  60.8000        572
  61.2000        552
  61.6000        541
  62.0000        530
  62.4000        534
  62.8000        536
  63.2000        512
  63.6000        547
  64.0000        531
  64.4000        485
  64.8000        531
  65.2000        498
  65.6000        545
  66.0000        477
  66.4000        508
  66.8000        530
  67.2000        505
  67.6000        513
  68.0000        545
  68.4000        599
  68.8000        495
  69.2000        589
  69.6000        491
  70.0000        556
  70.4000        536
  70.8000        512
  71.2000        496
  71.6000        553
  72.0000        508
  72.4000        556
  72.8000        541
  73.2000        517
  73.6000        537
  74.0000        547
  74.4000        530
  74.8000        565
  75.2000        549
  75.6000        530
  76.0000        539
  76.4000        782
  76.8000       1175
  77.2000       1094
  77.6000        679
  78.0000        536
  78.4000        534
  78.8000        511
  79.2000        542
  79.6000        541
  80.0000        545
  80.4000        546
  80.8000        505
  81.2000        510
  81.6000        531
  82.0000        544
  82.4000        575
  82.8000        512
  83.2000        477
  83.6000        533
  84.0000        526
  84.4000        492
  84.8000        489
  85.2000        524
  85.6000        490
  86.0000        537
  86.4000        463
  86.8000        478
  87.2000        528
  87.6000        557
  88.0000        566
  88.4000        507
  88.8000        561
  89.2000        530
  89.6000        550
  90.0000        572
  90.4000        537
  90.8000        548
  91.2000        501
  91.6000        502
  92.0000        519
  92.4000        505
  92.8000        521
  93.2000        491
  93.6000        540
  94.0000        512
  94.4000        518
  94.8000        542
  95.2000        530
  95.6000        539
  96.0000        505
  96.4000        508
  96.8000        519
  97.2000        510
  97.6000        482
  98.0000        559
  98.4000        620
  98.8000        942
  99.2000       1446
  99.6000       1353
 100.0000        750
 100.4000        574
 100.8000        549
 101.2000        541
 101.6000        562
 102.0000        535
 102.4000        570
 102.8000        532
 103.2000        501
 103.6000        527
 104.0000        482
 104.4000        534
 104.8000        488
 105.2000        535
 105.6000        508
 106.0000        510
 106.4000        475
 106.8000        466
 107.2000        466
 107.6000        525
 108.0000        571
 108.4000        530
 108.8000        496
 109.2000        501
 109.6000        483
 110.0000        551
 110.4000        522
 110.8000        564
 111.2000        520
 111.6000        522
 112.0000        478
 112.4000        561
 112.8000        523
 113.2000        505
 113.6000        534
 114.0000        507
 114.4000        483
 114.8000        535
 115.2000        512
 115.6000        514
 116.0000        509
 116.4000        532
 116.8000        504
 117.2000        506
 117.6000        512
 118.0000        512
 118.4000        536
 118.8000        516
 119.2000        508
 119.6000        502
 120.0000        510
 120.4000        507
 120.8000        502
 121.2000        521
 121.6000        505
 122.0000        501
 122.4000        535
 122.8000        575
 123.2000        595
 123.6000        635
 124.0000        589
 124.4000        514
 124.8000        515
 125.2000        483
 125.6000        524
 126.0000        518
 126.4000        527
 126.8000        491
 127.2000        567
 127.6000        516
 128.0000        558
 128.4000        510
 128.8000        506
 129.2000        502
 129.6000        516
 130.0000        533

; Data for range 2
_DRIVE = COUPLED
_STEPTIME = 0.2
_STEPSIZE = 0.1
_STEPMODE = C
_START = 40
_THETA = 20
_2THETA = 40
_KHI = 10.5
_PHI = 60
_X = 25
_Y = 0
_Z = 0
_DETECTOR = 1
; Detector type : Scintillation counter
_HV = 687
_GAIN = 80
_LLD = 0.69
_ULD = 1.866
_DETECTORSLIT = unkn
_AUX1 = 0
_AUX2 = 0
_AUX3 = 0
_TIMESTARTED = 225
_TEMP_RATE = -1
_TEMP_DELAY = -1
_KV = 35
_MA = 40
_RANGE_WL = 1.78897
_3DPLANE = 0
_V4_ADDITIONALDETECTOR = 0
_V4_D8_DIBNUM = 1
_V4_DETECTORNAME = "Detector 1"
_V4_TTLDETECTOR = None
_V4_DETECTORTYPE = 1
_V4_DETECTORFLAGS = 524545
_V4_DETECTORHV = 687
_V4_DETECTORGAIN = 80
_V4_DETECTORLLD1 = 0.69
_V4_DETECTORWW1 = 1.176
_V4_DETECTORLLD2 = 0
_V4_DETECTORWW2 = 0
_V4_DETECTORPS = 0
_V4_DETECTORDT = 0
_V4_DETECTORPILEUPTIME = 0
_V4_COUNTERS_MASK = 1
_V4_DRIVES_MASK = 0
_V4_ENCODERS_MASK = 0
_2THETACOUNTS = 1
; 2THETA  Cnt1_D1
  40.0000        538
  40.4000        581
  40.8000        487
  41.2000        576
  41.6000        564
  42.0000        561
  42.4000        535
  42.8000        565
  43.2000        494
  43.6000        568
  44.0000        539
  44.4000        547
  44.8000        565
  45.2000        539
  45.6000        544
  46.0000        540
  46.4000        527
  46.8000        547
  47.2000        534
  47.6000        556
  48.0000        577
  48.4000        544
  48.8000        593
  49.2000        537
  49.6000        569
  50.0000        518
  50.4000        576
  50.8000        574
  51.2000        593
  51.6000        861
  52.0000       1625
  52.4000       1584
  52.8000        701
  53.2000        506
  53.6000        539
  54.0000        587
  54.4000        502
  54.8000        567
  55.2000        554
  55.6000        558
  56.0000        559
  56.4000        527
  56.8000        512
  57.2000        503
  57.6000        523
  58.0000        473
  58.4000        522
  58.8000        584
  59.2000        506
  59.6000        581
  60.0000        520
  60.4000        503
  60.8000        499
  61.2000        533
  61.6000        486
  62.0000        526
  62.4000        540
  62.8000        562
  63.2000        506
  63.6000        493
  64.0000        505
  64.4000        527
  64.8000        503
  65.2000        564
  65.6000        501
  66.0000        511
  66.4000        509
  66.8000        508
  67.2000        513
  67.6000        530
  68.0000        526
  68.4000        559
  68.8000        530
  69.2000        544
  69.6000        515
  70.0000        562
  70.4000        516
  70.8000        516
  71.2000        535
  71.6000        554
  72.0000        514
  72.4000        541
  72.8000        499
  73.2000        551
  73.6000        556
  74.0000        494
  74.4000        535
  74.8000        509
  75.2000        526
  75.6000        521
  76.0000        547
  76.4000        677
  76.8000        899
  77.2000        887
  77.6000        647
  78.0000        518
  78.4000        509
  78.8000        512
  79.2000        534
  79.6000        544
  80.0000        531
  80.4000        491
  80.8000        510
  81.2000        540
  81.6000        524
  82.0000        555
  82.4000        528
  82.8000        501
  83.2000        513
  83.6000        543
  84.0000        515
  84.4000        520
  84.8000        503
  85.2000        505
  85.6000        524
  86.0000        550
  86.4000        526
  86.8000        506
  87.2000        484
  87.6000        509
  88.0000        512
  88.4000        545
  88.8000        503
  89.2000        550
  89.6000        534
  90.0000        548
  90.4000        510
  90.8000        552
  91.2000        489
  91.6000        492
  92.0000        531
  92.4000        529
  92.8000        532
  93.2000        527
  93.6000        540
  94.0000        525
  94.4000        526
  94.8000        538
  95.2000        506
  95.6000        494
  96.0000        548
  96.4000        516
  96.8000        527
  97.2000        526
  97.6000        520
  98.0000        533
  98.4000        614
  98.8000        834
  99.2000       1088
  99.6000       1039
 100.0000        713
 100.4000        541
 100.8000        553
 101.2000        520
 101.6000        512
 102.0000        551
 102.4000        534
 102.8000        554
 103.2000        563
 103.6000        498
 104.0000        509
 104.4000        480
 104.8000        516
 105.2000        525
 105.6000        497
 106.0000        534
 106.4000        530
 106.8000        517
 107.2000        544
 107.6000        536
 108.0000        517
 108.4000        506
 108.8000        466
 109.2000        515
 109.6000        497
 110.0000        503
 110.4000        543
 110.8000        484
 111.2000        531
 111.6000        545
 112.0000        521
 112.4000        532
 112.8000        527
 113.2000        543
 113.6000        529
 114.0000        587
 114.4000        522
 114.8000        506
 115.2000        548
 115.6000        499
 116.0000        502
 116.4000        529
 116.8000        507
 117.2000        517
 117.6000        548
 118.0000        541
 118.4000        516
 118.8000        476
 119.2000        495
 119.6000        525
 120.0000        536
 120.4000        513
 120.8000        517
 121.2000        502
 121.6000        560
 122.0000        528
 122.4000        509
 122.8000        529
 123.2000        625
 123.6000        646
 124.0000        584
 124.4000        558
 124.8000        525
 125.2000        488
 125.6000        494
 126.0000        563
 126.4000        520
 126.8000        507
 127.2000        510
 127.6000        520
 128.0000        506
 128.4000        537
 128.8000        526
 129.2000        526
 129.6000        464
 130.0000        483

; Data for range 3
_DRIVE = COUPLED
_STEPTIME = 0.2
_STEPSIZE = 0.1
_STEPMODE = C
_START = 40
_THETA = 20
_2THETA = 40
_KHI = 18.3
_PHI = 90
_X = 25
_Y = 0
_Z = 0
_DETECTOR = 1
; Detector type : Scintillation counter
_HV = 687
_GAIN = 80
_LLD = 0.69
_ULD = 1.866
_DETECTORSLIT = unkn
_AUX1 = 0
_AUX2 = 0
_AUX3 = 0
_TIMESTARTED = 422
_TEMP_RATE = -1
_TEMP_DELAY = -1
_KV = 35
_MA = 40
_RANGE_WL = 1.78897
_3DPLANE = 0
_V4_ADDITIONALDETECTOR = 0
_V4_D8_DIBNUM = 1
_V4_DETECTORNAME = "Detector 1"
_V4_TTLDETECTOR = None
_V4_DETECTORTYPE = 1
_V4_DETECTORFLAGS = 524545
_V4_DETECTORHV = 687
_V4_DETECTORGAIN = 80
_V4_DETECTORLLD1 = 0.69
_V4_DETECTORWW1 = 1.176
_V4_DETECTORLLD2 = 0
_V4_DETECTORWW2 = 0
_V4_DETECTORPS = 0
_V4_DETECTORDT = 0
_V4_DETECTORPILEUPTIME = 0
_V4_COUNTERS_MASK = 1
_V4_DRIVES_MASK = 0
_V4_ENCODERS_MASK = 0
_2THETACOUNTS = 1
; 2THETA  Cnt1_D1
  40.0000        539
  40.4000        553
  40.8000        547
  41.2000        542
  41.6000        497
  42.0000        518
  42.4000        506
  42.8000        544
  43.2000        523
  43.6000        525
  44.0000        539
  44.4000        492
  44.8000        530
  45.2000        565
  45.6000        546
  46.0000        544
  46.4000        520
  46.8000        556
  47.2000        528
  47.6000        506
  48.0000        521
  48.4000        511
  48.8000        503
  49.2000        516
  49.6000        550
  50.0000        596
  50.4000        591
  50.8000        678
  51.2000        676
  51.6000       1206
  52.0000       2243
  52.4000       2137
  52.8000        752
  53.2000        566
  53.6000        550
  54.0000        563
  54.4000        569
  54.8000        532
  55.2000        567
  55.6000        509
  56.0000        567
  56.4000        548
  56.8000        534
  57.2000        608
  57.6000        498
  58.0000        559
  58.4000        508
  58.8000        573
  59.2000        560
  59.6000        543
  60.0000        550
  60.4000        508
  60.8000        483
  61.2000        517
  61.6000        523
  62.0000        523
  62.4000        523
  62.8000        557
  63.2000        527
  63.6000        539
  64.0000        520
  64.4000        516
  64.8000        552
  65.2000        541
  65.6000        516
  66.0000        510
  66.4000        493
  66.8000        581
  67.2000        515
  67.6000        540
  68.0000        540
  68.4000        510
  68.8000        500
  69.2000        516
  69.6000        552
  70.0000        504
  70.4000        494
  70.8000        563
  71.2000        580
  71.6000        575
  72.0000        553
  72.4000        538
  72.8000        537
  73.2000        488
  73.6000        498
  74.0000        500
  74.4000        526
  74.8000        548
  75.2000        506
  75.6000        514
  76.0000        527
  76.4000        615
  76.8000        665
  77.2000        636
  77.6000        576
  78.0000        546
  78.4000        513
  78.8000        475
  79.2000        546
  79.6000        520
  80.0000        515
  80.4000        459
  80.8000        540
  81.2000        549
  81.6000        522
  82.0000        531
  82.4000        535
  82.8000        511
  83.2000        550
  83.6000        533
  84.0000        524
  84.4000        486
  84.8000        491
  85.2000        540
  85.6000        540
  86.0000        533
  86.4000        511
  86.8000        516
  87.2000        538
  87.6000        545
  88.0000        544
  88.4000        551
  88.8000        495
  89.2000        490
  89.6000        477
  90.0000        520
  90.4000        481
  90.8000        503
  91.2000        520
  91.6000        539
  92.0000        499
  92.4000        532
  92.8000        526
  93.2000        516
  93.6000        520
  94.0000        473
  94.4000        522
  94.8000        518
  95.2000        503
  95.6000        555
  96.0000        554
  96.4000        545
  96.8000        520
  97.2000        523
  97.6000        523
  98.0000        531
  98.4000        552
  98.8000        699
  99.2000        897
  99.6000        858
 100.0000        679
 100.4000        527
 100.8000        506
 101.2000        537
 101.6000        536
 102.0000        520
 102.4000        534
 102.8000        517
 103.2000        535
 103.6000        497
 104.0000        534
 104.4000        522
 104.8000        541
 105.2000        536
 105.6000        502
 106.0000        506
 106.4000        555
 106.8000        560
 107.2000        526
 107.6000        537
 108.0000        530
 108.4000        510
 108.8000        494
 109.2000        514
 109.6000        539
 110.0000        551
 110.4000        538
 110.8000        556
 111.2000        495
 111.6000        491
 112.0000        497
 112.4000        514
 112.8000        529
 113.2000        524
 113.6000        493
 114.0000        534
 114.4000        514
 114.8000        503
 115.2000        492
 115.6000        492
 116.0000        513
 116.4000        539
 116.8000        506
 117.2000        534
 117.6000        516
 118.0000        524
 118.4000        497
 118.8000        505
 119.2000        510
 119.6000        532
 120.0000        489
 120.4000        511
 120.8000        517
 121.2000        525
 121.6000        526
[...]
  72.4000        267
  72.8000        270
  73.2000        260
  73.6000        268
  74.0000        268
  74.4000        278
  74.8000        271
  75.2000        347
  75.6000        354
  76.0000        335
  76.4000        339
  76.8000        349
  77.2000        375
  77.6000        342
  78.0000        318
  78.4000        321
  78.8000        311
  79.2000        293
  79.6000        299
  80.0000        320
  80.4000        274
  80.8000        295
  81.2000        298
  81.6000        298
  82.0000        290
  82.4000        304
  82.8000        301
  83.2000        326
  83.6000        311
  84.0000        308
  84.4000        319
  84.8000        316
  85.2000        269
  85.6000        278
  86.0000        278
  86.4000        273
  86.8000        278
  87.2000        318
  87.6000        309
  88.0000        299
  88.4000        300
  88.8000        297
  89.2000        325
  89.6000        294
  90.0000        307
  90.4000        326
  90.8000        298
  91.2000        324
  91.6000        325
  92.0000        359
  92.4000        388
  92.8000        346
  93.2000        320
  93.6000        342
  94.0000        330
  94.4000        311
  94.8000        299
  95.2000        330
  95.6000        324
  96.0000        310
  96.4000        338
  96.8000        306
  97.2000        348
  97.6000        352
  98.0000        374
  98.4000        401
  98.8000        523
  99.2000        575
  99.6000        584
 100.0000        485
 100.4000        365
 100.8000        364
 101.2000        362
 101.6000        320
 102.0000        334
 102.4000        332
 102.8000        343
 103.2000        311
 103.6000        320
 104.0000        359
 104.4000        341
 104.8000        331
 105.2000        350
 105.6000        323
 106.0000        334
 106.4000        324
 106.8000        354
 107.2000        324
 107.6000        332
 108.0000        316
 108.4000        369
 108.8000        310
 109.2000        352
 109.6000        319
 110.0000        365
 110.4000        351
 110.8000        375
 111.2000        341
 111.6000        331
 112.0000        341
 112.4000        330
 112.8000        326
 113.2000        323
 113.6000        348
 114.0000        334
 114.4000        368
 114.8000        356
 115.2000        401
 115.6000        345
 116.0000        359
 116.4000        377
 116.8000        351
 117.2000        351
 117.6000        376
 118.0000        346
 118.4000        360
 118.8000        330
 119.2000        332
 119.6000        382
 120.0000        371
 120.4000        341
 120.8000        341
 121.2000        352
 121.6000        355
 122.0000        390
 122.4000        438
 122.8000        449
 123.2000        482
 123.6000        438
 124.0000        381
 124.4000        354
 124.8000        326
 125.2000        392
 125.6000        327
 126.0000        341
 126.4000        349
 126.8000        377
 127.2000        354
 127.6000        394
 128.0000        363
 128.4000        388
 128.8000        367
 129.2000        373
 129.6000        363
 130.0000        373

; Data for range 53
_DRIVE = COUPLED
_STEPTIME = 0.2
_STEPSIZE = 0.1
_STEPMODE = C
_START = 40
_THETA = 20
_2THETA = 40
_KHI = 80
_PHI = 0
_X = 25
_Y = 0
_Z = 0
_DETECTOR = 1
; Detector type : Scintillation counter
_HV = 687
_GAIN = 80
_LLD = 0.69
_ULD = 1.866
_DETECTORSLIT = unkn
_AUX1 = 0
_AUX2 = 0
_AUX3 = 0
_TIMESTARTED = 1.03e+004
_TEMP_RATE = -1
_TEMP_DELAY = -1
_KV = 35
_MA = 40
_RANGE_WL = 1.78897
_3DPLANE = 0
_V4_ADDITIONALDETECTOR = 0
_V4_D8_DIBNUM = 1
_V4_DETECTORNAME = "Detector 1"
_V4_TTLDETECTOR = None
_V4_DETECTORTYPE = 1
_V4_DETECTORFLAGS = 524545
_V4_DETECTORHV = 687
_V4_DETECTORGAIN = 80
_V4_DETECTORLLD1 = 0.69
_V4_DETECTORWW1 = 1.176
_V4_DETECTORLLD2 = 0
_V4_DETECTORWW2 = 0
_V4_DETECTORPS = 0
_V4_DETECTORDT = 0
_V4_DETECTORPILEUPTIME = 0
_V4_COUNTERS_MASK = 1
_V4_DRIVES_MASK = 0
_V4_ENCODERS_MASK = 0
_2THETACOUNTS = 1
; 2THETA  Cnt1_D1
  40.0000        169
  40.4000        183
  40.8000        174
  41.2000        153
  41.6000        171
  42.0000        172
  42.4000        189
  42.8000        255
  43.2000        259
  43.6000        250
  44.0000        180
  44.4000        169
  44.8000        177
  45.2000        184
  45.6000        164
  46.0000        164
  46.4000        192
  46.8000        178
  47.2000        156
  47.6000        176
  48.0000        193
  48.4000        167
  48.8000        182
  49.2000        208
  49.6000        220
  50.0000        232
  50.4000        263
  50.8000        244
  51.2000        320
  51.6000        563
  52.0000        880
  52.4000        865
  52.8000        609
  53.2000        383
  53.6000        234
  54.0000        198
  54.4000        209
  54.8000        197
  55.2000        202
  55.6000        200
  56.0000        232
  56.4000        204
  56.8000        240
  57.2000        219
  57.6000        200
  58.0000        220
  58.4000        191
  58.8000        217
  59.2000        218
  59.6000        210
  60.0000        220
  60.4000        216
  60.8000        233
  61.2000        211
  61.6000        204
  62.0000        171
  62.4000        205
  62.8000        222
  63.2000        208
  63.6000        192
  64.0000        272
  64.4000        225
  64.8000        226
  65.2000        225
  65.6000        233
  66.0000        223
  66.4000        217
  66.8000        248
  67.2000        211
  67.6000        228
  68.0000        233
  68.4000        234
  68.8000        240
  69.2000        252
  69.6000        242
  70.0000        235
  70.4000        245
  70.8000        238
  71.2000        259
  71.6000        227
  72.0000        233
  72.4000        256
  72.8000        266
  73.2000        259
  73.6000        235
  74.0000        266
  74.4000        255
  74.8000        282
  75.2000        274
  75.6000        298
  76.0000        270
  76.4000        303
  76.8000        309
  77.2000        295
  77.6000        301
  78.0000        302
  78.4000        299
  78.8000        293
  79.2000        254
  79.6000        265
  80.0000        285
  80.4000        301
  80.8000        284
  81.2000        302
  81.6000        299
  82.0000        305
  82.4000        289
  82.8000        289
  83.2000        296
  83.6000        257
  84.0000        285
  84.4000        305
  84.8000        292
  85.2000        268
  85.6000        283
  86.0000        284
  86.4000        326
  86.8000        304
  87.2000        298
  87.6000        310
  88.0000        293
  88.4000        288
  88.8000        303
  89.2000        307
  89.6000        307
  90.0000        300
  90.4000        302
  90.8000        333
  91.2000        284
  91.6000        318
  92.0000        314
  92.4000        343
  92.8000        314
  93.2000        306
  93.6000        321
  94.0000        315
  94.4000        328
  94.8000        299
  95.2000        322
  95.6000        303
  96.0000        282
  96.4000        299
  96.8000        314
  97.2000        333
  97.6000        348
  98.0000        387
  98.4000        435
  98.8000        530
  99.2000        566
  99.6000        569
 100.0000        511
 100.4000        376
 100.8000        327
 101.2000        321
 101.6000        366
 102.0000        367
 102.4000        312
 102.8000        315
 103.2000        361
 103.6000        326
 104.0000        336
 104.4000        344
 104.8000        338
 105.2000        329
 105.6000        353
 106.0000        350
 106.4000        343
 106.8000        337
 107.2000        349
 107.6000        345
 108.0000        346
 108.4000        330
 108.8000        391
 109.2000        334
 109.6000        372
 110.0000        349
 110.4000        374
 110.8000        346
 111.2000        349
 111.6000        386
 112.0000        343
 112.4000        339
 112.8000        360
 113.2000        364
 113.6000        324
 114.0000        378
 114.4000        358
 114.8000        375
 115.2000        373
 115.6000        369
 116.0000        378
 116.4000        363
 116.8000        379
 117.2000        386
 117.6000        372
 118.0000        373
 118.4000        380
 118.8000        394
 119.2000        388
 119.6000        414
 120.0000        335
 120.4000        374
 120.8000        371
 121.2000        395
 121.6000        352
 122.0000        425
 122.4000        406
 122.8000        483
 123.2000        513
 123.6000        502
 124.0000        464
 124.4000        428
 124.8000        380
 125.2000        403
 125.6000        388
 126.0000        360
 126.4000        353
 126.8000        381
 127.2000        380
 127.6000        362
 128.0000        394
 128.4000        373
 128.8000        370
 129.2000        352
 129.6000        374
 130.0000        333