File: exp_dat/old/exp_2013_11_11/25pct_-40G.uxd
; (content of file C:\DIFFDAT1\GIFT\MDL\Seawoong Lee\20131104_MV8\equal_area_maxkhi080_n8_2th40_130_x00y00_-40g.raw)
_FILEVERSION = 3
_SAMPLE =
_+SAMPLE =
_SITE = Korea
_USER = Admin
_GONIOMETER_CODE = 20
; Goniometer : D8 theta/2theta, stage : Unknown
_SAMPLE_CHANGER_CODE = 0
_ATTACHMENTS_CODE = 0
_GONIOMETER_RADIUS = 300
_FIXED_DIVSLIT = 1
_FIXED_SAMPLESLIT = 0
_SOLLER_SLITS = 2
_FIXED_DETSLIT = 0.1
_MONOCHROMATOR = 0
; Incident beam monochromator : None
_SOLLER_SLITS_2 = 2
_THIN_FILM = N
_BETA_FILTER = Y
_FIXED_ANTISLIT = 0.6
_ANALYZER_CODE = 0
; Received beam analyzer : None
_DATEMEASURED = "08-Nov-2013 00:19:36"
_WL_UNIT = A
_WL1 = 1.78897
_WL2 = 1.79285
_WL3 = 1.62079
_WLRATIO = 0.5
_ANODE = Co
_V4_INF_CREATOR = XRDWizard
_V4_INF_CREATOR_VERSION = V2.9.0.22
_V4_INF_WIZARD_VERSION = V2.9.0.22
_V4_INF_WIZARD_ADDINS = V2.9.0.22
_V4_INF_WIZARD_DOCTYPE = XRD
_V4_INF_OSUSER = Postech
_V4_INF_USER = Admin
_V4_INF_SITE = Korea

; Data for range 1
_DRIVE = COUPLED
_STEPTIME = 0.2
_STEPSIZE = 0.1
_STEPMODE = C
_START = 40
_THETA = 20
_2THETA = 40
_KHI = 0
_PHI = 0
_X = 0
_Y = 0
_Z = 0
_DETECTOR = 1
; Detector type : Scintillation counter
_HV = 687
_GAIN = 80
_LLD = 0.69
_ULD = 1.866
_DETECTORSLIT = unkn
_AUX1 = 0
_AUX2 = 0
_AUX3 = 0
_TIMESTARTED = 28
_TEMP_RATE = -1
_TEMP_DELAY = -1
_KV = 35
_MA = 40
_RANGE_WL = 1.78897
_3DPLANE = 0
_V4_ADDITIONALDETECTOR = 0
_V4_D8_DIBNUM = 1
_V4_DETECTORNAME = "Detector 1"
_V4_TTLDETECTOR = None
_V4_DETECTORTYPE = 1
_V4_DETECTORFLAGS = 524545
_V4_DETECTORHV = 687
_V4_DETECTORGAIN = 80
_V4_DETECTORLLD1 = 0.69
_V4_DETECTORWW1 = 1.176
_V4_DETECTORLLD2 = 0
_V4_DETECTORWW2 = 0
_V4_DETECTORPS = 0
_V4_DETECTORDT = 0
_V4_DETECTORPILEUPTIME = 0
_V4_COUNTERS_MASK = 1
_V4_DRIVES_MASK = 0
_V4_ENCODERS_MASK = 0
_2THETACOUNTS = 1
; 2THETA  Cnt1_D1
  40.0000        452
  40.4000        458
  40.8000        430
  41.2000        416
  41.6000        422
  42.0000        510
  42.4000        461
  42.8000        450
  43.2000        453
  43.6000        466
  44.0000        458
  44.4000        469
  44.8000        471
  45.2000        429
  45.6000        487
  46.0000        476
  46.4000        449
  46.8000        472
  47.2000        483
  47.6000        470
  48.0000        483
  48.4000        478
  48.8000        451
  49.2000        511
  49.6000        489
  50.0000        508
  50.4000        505
  50.8000        500
  51.2000        516
  51.6000        706
  52.0000       1174
  52.4000       1088
  52.8000        620
  53.2000        539
  53.6000        514
  54.0000        508
  54.4000        496
  54.8000        499
  55.2000        510
  55.6000        459
  56.0000        524
  56.4000        495
  56.8000        510
  57.2000        498
  57.6000        538
  58.0000        531
  58.4000        477
  58.8000        495
  59.2000        517
  59.6000        542
  60.0000        525
  60.4000        514
  60.8000        510
  61.2000        511
  61.6000        487
  62.0000        474
  62.4000        484
  62.8000        510
  63.2000        501
  63.6000        487
  64.0000        490
  64.4000        447
  64.8000        518
  65.2000        515
  65.6000        519
  66.0000        527
  66.4000        483
  66.8000        538
  67.2000        519
  67.6000        497
  68.0000        491
  68.4000        482
  68.8000        476
  69.2000        488
  69.6000        523
  70.0000        457
  70.4000        516
  70.8000        526
  71.2000        512
  71.6000        505
  72.0000        495
  72.4000        518
  72.8000        487
  73.2000        496
  73.6000        536
  74.0000        544
  74.4000        510
  74.8000        510
  75.2000        537
  75.6000        529
  76.0000        642
  76.4000       1020
  76.8000       1256
  77.2000        998
  77.6000        664
  78.0000        574
  78.4000        570
  78.8000        557
  79.2000        481
  79.6000        477
  80.0000        510
  80.4000        528
  80.8000        529
  81.2000        518
  81.6000        516
  82.0000        505
  82.4000        531
  82.8000        517
  83.2000        558
  83.6000        503
  84.0000        504
  84.4000        547
  84.8000        520
  85.2000        471
  85.6000        530
  86.0000        488
  86.4000        564
  86.8000        512
  87.2000        526
  87.6000        536
  88.0000        498
  88.4000        510
  88.8000        480
  89.2000        513
  89.6000        514
  90.0000        505
  90.4000        504
  90.8000        504
  91.2000        518
  91.6000        516
  92.0000        504
  92.4000        472
  92.8000        492
  93.2000        498
  93.6000        529
  94.0000        498
  94.4000        519
  94.8000        506
  95.2000        512
  95.6000        516
  96.0000        524
  96.4000        520
  96.8000        479
  97.2000        533
  97.6000        551
  98.0000        575
  98.4000        705
  98.8000       1183
  99.2000       1621
  99.6000       1330
 100.0000        801
 100.4000        611
 100.8000        580
 101.2000        531
 101.6000        521
 102.0000        517
 102.4000        496
 102.8000        520
 103.2000        532
 103.6000        514
 104.0000        509
 104.4000        502
 104.8000        513
 105.2000        515
 105.6000        539
 106.0000        537
 106.4000        513
 106.8000        488
 107.2000        541
 107.6000        533
 108.0000        574
 108.4000        524
 108.8000        508
 109.2000        508
 109.6000        478
 110.0000        533
 110.4000        513
 110.8000        541
 111.2000        511
 111.6000        534
 112.0000        469
 112.4000        481
 112.8000        548
 113.2000        512
 113.6000        545
 114.0000        488
 114.4000        544
 114.8000        509
 115.2000        536
 115.6000        547
 116.0000        481
 116.4000        541
 116.8000        516
 117.2000        499
 117.6000        519
 118.0000        496
 118.4000        517
 118.8000        492
 119.2000        513
 119.6000        507
 120.0000        528
 120.4000        529
 120.8000        509
 121.2000        542
 121.6000        555
 122.0000        515
 122.4000        541
 122.8000        588
 123.2000        582
 123.6000        511
 124.0000        530
 124.4000        534
 124.8000        549
 125.2000        514
 125.6000        495
 126.0000        521
 126.4000        514
 126.8000        481
 127.2000        537
 127.6000        549
 128.0000        492
 128.4000        490
 128.8000        521
 129.2000        487
 129.6000        511
 130.0000        487

; Data for range 2
_DRIVE = COUPLED
_STEPTIME = 0.2
_STEPSIZE = 0.1
_STEPMODE = C
_START = 40
_THETA = 20
_2THETA = 40
_KHI = 10.5
_PHI = 60
_X = 0
_Y = 0
_Z = 0
_DETECTOR = 1
; Detector type : Scintillation counter
_HV = 687
_GAIN = 80
_LLD = 0.69
_ULD = 1.866
_DETECTORSLIT = unkn
_AUX1 = 0
_AUX2 = 0
_AUX3 = 0
_TIMESTARTED = 225
_TEMP_RATE = -1
_TEMP_DELAY = -1
_KV = 35
_MA = 40
_RANGE_WL = 1.78897
_3DPLANE = 0
_V4_ADDITIONALDETECTOR = 0
_V4_D8_DIBNUM = 1
_V4_DETECTORNAME = "Detector 1"
_V4_TTLDETECTOR = None
_V4_DETECTORTYPE = 1
_V4_DETECTORFLAGS = 524545
_V4_DETECTORHV = 687
_V4_DETECTORGAIN = 80
_V4_DETECTORLLD1 = 0.69
_V4_DETECTORWW1 = 1.176
_V4_DETECTORLLD2 = 0
_V4_DETECTORWW2 = 0
_V4_DETECTORPS = 0
_V4_DETECTORDT = 0
_V4_DETECTORPILEUPTIME = 0
_V4_COUNTERS_MASK = 1
_V4_DRIVES_MASK = 0
_V4_ENCODERS_MASK = 0
_2THETACOUNTS = 1
; 2THETA  Cnt1_D1
  40.0000        519
  40.4000        514
  40.8000        530
  41.2000        502
  41.6000        512
  42.0000        482
  42.4000        497
  42.8000        490
  43.2000        481
  43.6000        468
  44.0000        556
  44.4000        490
  44.8000        547
  45.2000        531
  45.6000        497
  46.0000        508
  46.4000        522
  46.8000        523
  47.2000        491
  47.6000        514
  48.0000        503
  48.4000        495
  48.8000        533
  49.2000        554
  49.6000        544
  50.0000        537
  50.4000        503
  50.8000        532
  51.2000        560
  51.6000        814
  52.0000       1316
  52.4000       1264
  52.8000        684
  53.2000        532
  53.6000        516
  54.0000        455
  54.4000        486
  54.8000        535
  55.2000        515
  55.6000        529
  56.0000        503
  56.4000        507
  56.8000        522
  57.2000        500
  57.6000        518
  58.0000        501
  58.4000        517
  58.8000        479
  59.2000        513
  59.6000        540
  60.0000        487
  60.4000        514
  60.8000        559
  61.2000        541
  61.6000        565
  62.0000        494
  62.4000        544
  62.8000        555
  63.2000        513
  63.6000        504
  64.0000        521
  64.4000        489
  64.8000        511
  65.2000        530
  65.6000        529
  66.0000        532
  66.4000        485
  66.8000        509
  67.2000        516
  67.6000        499
  68.0000        539
  68.4000        502
  68.8000        523
  69.2000        496
  69.6000        488
  70.0000        510
  70.4000        490
  70.8000        509
  71.2000        526
  71.6000        538
  72.0000        528
  72.4000        488
  72.8000        479
  73.2000        532
  73.6000        538
  74.0000        521
  74.4000        499
  74.8000        473
  75.2000        550
  75.6000        508
  76.0000        592
  76.4000        700
  76.8000        790
  77.2000        706
  77.6000        576
  78.0000        521
  78.4000        528
  78.8000        533
  79.2000        493
  79.6000        535
  80.0000        460
  80.4000        535
  80.8000        503
  81.2000        479
  81.6000        521
  82.0000        499
  82.4000        479
  82.8000        488
  83.2000        500
  83.6000        529
  84.0000        550
  84.4000        502
  84.8000        494
  85.2000        493
  85.6000        476
  86.0000        556
  86.4000        532
  86.8000        512
  87.2000        496
  87.6000        548
  88.0000        520
  88.4000        502
  88.8000        514
  89.2000        498
  89.6000        503
  90.0000        459
  90.4000        514
  90.8000        502
  91.2000        501
  91.6000        527
  92.0000        547
  92.4000        548
  92.8000        508
  93.2000        480
  93.6000        509
  94.0000        476
  94.4000        499
  94.8000        521
  95.2000        479
  95.6000        521
  96.0000        545
  96.4000        527
  96.8000        524
  97.2000        527
  97.6000        515
  98.0000        511
  98.4000        594
  98.8000        772
  99.2000        976
  99.6000        908
 100.0000        689
 100.4000        545
 100.8000        492
 101.2000        539
 101.6000        515
 102.0000        513
 102.4000        552
 102.8000        503
 103.2000        520
 103.6000        468
 104.0000        503
 104.4000        536
 104.8000        526
 105.2000        520
 105.6000        529
 106.0000        506
 106.4000        527
 106.8000        511
 107.2000        500
 107.6000        490
 108.0000        506
 108.4000        490
 108.8000        512
 109.2000        525
 109.6000        500
 110.0000        524
 110.4000        499
 110.8000        489
 111.2000        501
 111.6000        497
 112.0000        468
 112.4000        466
 112.8000        470
 113.2000        511
 113.6000        510
 114.0000        525
 114.4000        520
 114.8000        501
 115.2000        563
 115.6000        500
 116.0000        530
 116.4000        499
 116.8000        523
 117.2000        515
 117.6000        538
 118.0000        514
 118.4000        527
 118.8000        524
 119.2000        514
 119.6000        510
 120.0000        478
 120.4000        503
 120.8000        549
 121.2000        497
 121.6000        475
 122.0000        520
 122.4000        528
 122.8000        582
 123.2000        557
 123.6000        582
 124.0000        556
 124.4000        530
 124.8000        502
 125.2000        505
 125.6000        479
 126.0000        507
 126.4000        498
 126.8000        489
 127.2000        493
 127.6000        488
 128.0000        515
 128.4000        512
 128.8000        485
 129.2000        513
 129.6000        529
 130.0000        501

; Data for range 3
_DRIVE = COUPLED
_STEPTIME = 0.2
_STEPSIZE = 0.1
_STEPMODE = C
_START = 40
_THETA = 20
_2THETA = 40
_KHI = 18.3
_PHI = 90
_X = 0
_Y = 0
_Z = 0
_DETECTOR = 1
; Detector type : Scintillation counter
_HV = 687
_GAIN = 80
_LLD = 0.69
_ULD = 1.866
_DETECTORSLIT = unkn
_AUX1 = 0
_AUX2 = 0
_AUX3 = 0
_TIMESTARTED = 422
_TEMP_RATE = -1
_TEMP_DELAY = -1
_KV = 35
_MA = 40
_RANGE_WL = 1.78897
_3DPLANE = 0
_V4_ADDITIONALDETECTOR = 0
_V4_D8_DIBNUM = 1
_V4_DETECTORNAME = "Detector 1"
_V4_TTLDETECTOR = None
_V4_DETECTORTYPE = 1
_V4_DETECTORFLAGS = 524545
_V4_DETECTORHV = 687
_V4_DETECTORGAIN = 80
_V4_DETECTORLLD1 = 0.69
_V4_DETECTORWW1 = 1.176
_V4_DETECTORLLD2 = 0
_V4_DETECTORWW2 = 0
_V4_DETECTORPS = 0
_V4_DETECTORDT = 0
_V4_DETECTORPILEUPTIME = 0
_V4_COUNTERS_MASK = 1
_V4_DRIVES_MASK = 0
_V4_ENCODERS_MASK = 0
_2THETACOUNTS = 1
; 2THETA  Cnt1_D1
  40.0000        495
  40.4000        522
  40.8000        469
  41.2000        460
  41.6000        527
  42.0000        511
  42.4000        518
  42.8000        512
  43.2000        526
  43.6000        498
  44.0000        513
  44.4000        510
  44.8000        506
  45.2000        483
  45.6000        501
  46.0000        509
  46.4000        543
  46.8000        552
  47.2000        508
  47.6000        509
  48.0000        488
  48.4000        535
  48.8000        533
  49.2000        513
  49.6000        538
  50.0000        542
  50.4000        580
  50.8000        527
  51.2000        625
  51.6000       1406
  52.0000       2439
  52.4000       2261
  52.8000        823
  53.2000        564
  53.6000        504
  54.0000        539
  54.4000        531
  54.8000        513
  55.2000        530
  55.6000        528
  56.0000        508
  56.4000        510
  56.8000        509
  57.2000        547
  57.6000        551
  58.0000        513
  58.4000        563
  58.8000        536
  59.2000        533
  59.6000        502
  60.0000        511
  60.4000        511
  60.8000        541
  61.2000        502
  61.6000        529
  62.0000        538
  62.4000        493
  62.8000        546
  63.2000        535
  63.6000        515
  64.0000        504
  64.4000        533
  64.8000        475
  65.2000        504
  65.6000        457
  66.0000        486
  66.4000        490
  66.8000        475
  67.2000        531
  67.6000        487
  68.0000        515
  68.4000        506
  68.8000        501
  69.2000        544
  69.6000        529
  70.0000        487
  70.4000        508
  70.8000        532
  71.2000        521
  71.6000        484
  72.0000        525
  72.4000        553
  72.8000        545
  73.2000        476
  73.6000        488
  74.0000        529
  74.4000        502
  74.8000        526
  75.2000        525
  75.6000        519
  76.0000        540
  76.4000        575
  76.8000        588
  77.2000        574
  77.6000        508
  78.0000        518
  78.4000        522
  78.8000        465
  79.2000        526
  79.6000        490
  80.0000        531
  80.4000        495
  80.8000        499
  81.2000        475
  81.6000        521
  82.0000        520
  82.4000        500
  82.8000        508
  83.2000        487
  83.6000        503
  84.0000        524
  84.4000        477
  84.8000        477
  85.2000        522
  85.6000        515
  86.0000        513
  86.4000        422
  86.8000        512
  87.2000        501
  87.6000        500
  88.0000        498
  88.4000        562
  88.8000        540
  89.2000        503
  89.6000        491
  90.0000        514
  90.4000        536
  90.8000        462
  91.2000        502
  91.6000        478
  92.0000        500
  92.4000        520
  92.8000        528
  93.2000        517
  93.6000        503
  94.0000        487
  94.4000        489
  94.8000        492
  95.2000        492
  95.6000        505
  96.0000        519
  96.4000        478
  96.8000        473
  97.2000        498
  97.6000        548
  98.0000        570
  98.4000        577
  98.8000        673
  99.2000        836
  99.6000        777
 100.0000        617
 100.4000        561
 100.8000        511
 101.2000        515
 101.6000        522
 102.0000        473
 102.4000        482
 102.8000        520
 103.2000        491
 103.6000        524
 104.0000        534
 104.4000        503
 104.8000        473
 105.2000        503
 105.6000        568
 106.0000        555
 106.4000        532
 106.8000        502
 107.2000        463
 107.6000        535
 108.0000        508
 108.4000        475
 108.8000        543
 109.2000        522
 109.6000        524
 110.0000        542
 110.4000        456
 110.8000        493
 111.2000        528
 111.6000        512
 112.0000        498
 112.4000        515
 112.8000        485
 113.2000        491
 113.6000        490
 114.0000        520
 114.4000        552
 114.8000        539
 115.2000        501
 115.6000        459
 116.0000        524
 116.4000        515
 116.8000        527
 117.2000        481
 117.6000        467
 118.0000        535
 118.4000        478
 118.8000        528
 119.2000        501
 119.6000        505
 120.0000        534
 120.4000        515
 120.8000        500
 121.2000        491
 121.6000        490
[...]
  72.4000        327
  72.8000        272
  73.2000        294
  73.6000        318
  74.0000        293
  74.4000        319
  74.8000        344
  75.2000        338
  75.6000        338
  76.0000        346
  76.4000        374
  76.8000        411
  77.2000        400
  77.6000        351
  78.0000        362
  78.4000        354
  78.8000        326
  79.2000        325
  79.6000        313
  80.0000        319
  80.4000        319
  80.8000        318
  81.2000        328
  81.6000        350
  82.0000        362
  82.4000        348
  82.8000        309
  83.2000        305
  83.6000        341
  84.0000        300
  84.4000        302
  84.8000        351
  85.2000        338
  85.6000        351
  86.0000        325
  86.4000        323
  86.8000        322
  87.2000        377
  87.6000        346
  88.0000        321
  88.4000        346
  88.8000        329
  89.2000        324
  89.6000        378
  90.0000        343
  90.4000        354
  90.8000        370
  91.2000        348
  91.6000        374
  92.0000        339
  92.4000        380
  92.8000        376
  93.2000        356
  93.6000        367
  94.0000        324
  94.4000        376
  94.8000        343
  95.2000        368
  95.6000        354
  96.0000        331
  96.4000        365
  96.8000        369
  97.2000        367
  97.6000        391
  98.0000        370
  98.4000        479
  98.8000        579
  99.2000        600
  99.6000        574
 100.0000        497
 100.4000        431
 100.8000        392
 101.2000        422
 101.6000        354
 102.0000        371
 102.4000        371
 102.8000        355
 103.2000        368
 103.6000        357
 104.0000        389
 104.4000        346
 104.8000        359
 105.2000        389
 105.6000        342
 106.0000        349
 106.4000        343
 106.8000        354
 107.2000        335
 107.6000        363
 108.0000        386
 108.4000        381
 108.8000        381
 109.2000        370
 109.6000        382
 110.0000        387
 110.4000        382
 110.8000        367
 111.2000        397
 111.6000        384
 112.0000        349
 112.4000        374
 112.8000        373
 113.2000        368
 113.6000        389
 114.0000        374
 114.4000        389
 114.8000        387
 115.2000        369
 115.6000        400
 116.0000        378
 116.4000        407
 116.8000        401
 117.2000        364
 117.6000        392
 118.0000        386
 118.4000        378
 118.8000        371
 119.2000        389
 119.6000        393
 120.0000        378
 120.4000        387
 120.8000        406
 121.2000        366
 121.6000        400
 122.0000        405
 122.4000        483
 122.8000        505
 123.2000        533
 123.6000        529
 124.0000        452
 124.4000        394
 124.8000        418
 125.2000        418
 125.6000        412
 126.0000        419
 126.4000        372
 126.8000        391
 127.2000        386
 127.6000        385
 128.0000        406
 128.4000        400
 128.8000        410
 129.2000        421
 129.6000        376
 130.0000        433

; Data for range 53
_DRIVE = COUPLED
_STEPTIME = 0.2
_STEPSIZE = 0.1
_STEPMODE = C
_START = 40
_THETA = 20
_2THETA = 40
_KHI = 80
_PHI = 0
_X = 0
_Y = 0
_Z = 0
_DETECTOR = 1
; Detector type : Scintillation counter
_HV = 687
_GAIN = 80
_LLD = 0.69
_ULD = 1.866
_DETECTORSLIT = unkn
_AUX1 = 0
_AUX2 = 0
_AUX3 = 0
_TIMESTARTED = 1.03e+004
_TEMP_RATE = -1
_TEMP_DELAY = -1
_KV = 35
_MA = 40
_RANGE_WL = 1.78897
_3DPLANE = 0
_V4_ADDITIONALDETECTOR = 0
_V4_D8_DIBNUM = 1
_V4_DETECTORNAME = "Detector 1"
_V4_TTLDETECTOR = None
_V4_DETECTORTYPE = 1
_V4_DETECTORFLAGS = 524545
_V4_DETECTORHV = 687
_V4_DETECTORGAIN = 80
_V4_DETECTORLLD1 = 0.69
_V4_DETECTORWW1 = 1.176
_V4_DETECTORLLD2 = 0
_V4_DETECTORWW2 = 0
_V4_DETECTORPS = 0
_V4_DETECTORDT = 0
_V4_DETECTORPILEUPTIME = 0
_V4_COUNTERS_MASK = 1
_V4_DRIVES_MASK = 0
_V4_ENCODERS_MASK = 0
_2THETACOUNTS = 1
; 2THETA  Cnt1_D1
  40.0000        161
  40.4000        130
  40.8000        173
  41.2000        123
  41.6000        136
  42.0000        162
  42.4000        168
  42.8000        205
  43.2000        252
  43.6000        226
  44.0000        172
  44.4000        159
  44.8000        157
  45.2000        141
  45.6000        157
  46.0000        159
  46.4000        155
  46.8000        170
  47.2000        176
  47.6000        160
  48.0000        170
  48.4000        172
  48.8000        163
  49.2000        197
  49.6000        179
  50.0000        227
  50.4000        188
  50.8000        222
  51.2000        233
  51.6000        367
  52.0000        690
  52.4000        821
  52.8000        738
  53.2000        404
  53.6000        194
  54.0000        169
  54.4000        177
  54.8000        198
  55.2000        166
  55.6000        194
  56.0000        199
  56.4000        161
  56.8000        188
  57.2000        188
  57.6000        204
  58.0000        160
  58.4000        228
  58.8000        184
  59.2000        192
  59.6000        184
  60.0000        187
  60.4000        207
  60.8000        228
  61.2000        219
  61.6000        192
  62.0000        192
  62.4000        197
  62.8000        214
  63.2000        201
  63.6000        203
  64.0000        184
  64.4000        183
  64.8000        181
  65.2000        182
  65.6000        211
  66.0000        207
  66.4000        209
  66.8000        197
  67.2000        209
  67.6000        205
  68.0000        197
  68.4000        198
  68.8000        220
  69.2000        206
  69.6000        203
  70.0000        199
  70.4000        222
  70.8000        201
  71.2000        217
  71.6000        232
  72.0000        212
  72.4000        227
  72.8000        212
  73.2000        223
  73.6000        221
  74.0000        209
  74.4000        231
  74.8000        247
  75.2000        246
  75.6000        254
  76.0000        260
  76.4000        267
  76.8000        258
  77.2000        297
  77.6000        256
  78.0000        244
  78.4000        242
  78.8000        228
  79.2000        269
  79.6000        223
  80.0000        226
  80.4000        205
  80.8000        257
  81.2000        236
  81.6000        243
  82.0000        250
  82.4000        244
  82.8000        226
  83.2000        236
  83.6000        242
  84.0000        215
  84.4000        238
  84.8000        239
  85.2000        274
  85.6000        255
  86.0000        240
  86.4000        271
  86.8000        247
  87.2000        268
  87.6000        268
  88.0000        256
  88.4000        266
  88.8000        244
  89.2000        262
  89.6000        257
  90.0000        251
  90.4000        257
  90.8000        273
  91.2000        245
  91.6000        280
  92.0000        297
  92.4000        271
  92.8000        276
  93.2000        248
  93.6000        252
  94.0000        288
  94.4000        263
  94.8000        276
  95.2000        267
  95.6000        268
  96.0000        295
  96.4000        312
  96.8000        284
  97.2000        306
  97.6000        290
  98.0000        345
  98.4000        406
  98.8000        455
  99.2000        510
  99.6000        544
 100.0000        450
 100.4000        361
 100.8000        324
 101.2000        293
 101.6000        290
 102.0000        288
 102.4000        277
 102.8000        310
 103.2000        315
 103.6000        279
 104.0000        276
 104.4000        312
 104.8000        333
 105.2000        331
 105.6000        318
 106.0000        305
 106.4000        315
 106.8000        325
 107.2000        340
 107.6000        305
 108.0000        338
 108.4000        315
 108.8000        310
 109.2000        314
 109.6000        360
 110.0000        313
 110.4000        330
 110.8000        322
 111.2000        312
 111.6000        328
 112.0000        322
 112.4000        379
 112.8000        341
 113.2000        318
 113.6000        356
 114.0000        342
 114.4000        316
 114.8000        392
 115.2000        362
 115.6000        327
 116.0000        337
 116.4000        313
 116.8000        374
 117.2000        400
 117.6000        365
 118.0000        348
 118.4000        376
 118.8000        360
 119.2000        378
 119.6000        371
 120.0000        371
 120.4000        376
 120.8000        378
 121.2000        360
 121.6000        387
 122.0000        419
 122.4000        410
 122.8000        462
 123.2000        494
 123.6000        468
 124.0000        483
 124.4000        437
 124.8000        401
 125.2000        355
 125.6000        452
 126.0000        390
 126.4000        395
 126.8000        402
 127.2000        385
 127.6000        329
 128.0000        369
 128.4000        371
 128.8000        383
 129.2000        405
 129.6000        418
 130.0000        370