File: exp_dat/old/exp_2013_11_11/26pct_-50L.uxd
; (content of file C:\DIFFDAT1\GIFT\MDL\Seawoong Lee\20131104_MV8\equal_area_maxkhi080_n8_2th40_130_x25y25_-50L.raw)
_FILEVERSION = 3
_SAMPLE =
_+SAMPLE =
_SITE = Korea
_USER = Admin
_GONIOMETER_CODE = 20
; Goniometer : D8 theta/2theta, stage : Unknown
_SAMPLE_CHANGER_CODE = 0
_ATTACHMENTS_CODE = 0
_GONIOMETER_RADIUS = 300
_FIXED_DIVSLIT = 1
_FIXED_SAMPLESLIT = 0
_SOLLER_SLITS = 2
_FIXED_DETSLIT = 0.1
_MONOCHROMATOR = 0
; Incident beam monochromator : None
_SOLLER_SLITS_2 = 2
_THIN_FILM = N
_BETA_FILTER = Y
_FIXED_ANTISLIT = 0.6
_ANALYZER_CODE = 0
; Received beam analyzer : None
_DATEMEASURED = "07-Nov-2013 18:30:19"
_WL_UNIT = A
_WL1 = 1.78897
_WL2 = 1.79285
_WL3 = 1.62079
_WLRATIO = 0.5
_ANODE = Co
_V4_INF_CREATOR = XRDWizard
_V4_INF_CREATOR_VERSION = V2.9.0.22
_V4_INF_WIZARD_VERSION = V2.9.0.22
_V4_INF_WIZARD_ADDINS = V2.9.0.22
_V4_INF_WIZARD_DOCTYPE = XRD
_V4_INF_OSUSER = Postech
_V4_INF_USER = Admin
_V4_INF_SITE = Korea

; Data for range 1
_DRIVE = COUPLED
_STEPTIME = 0.2
_STEPSIZE = 0.1
_STEPMODE = C
_START = 40
_THETA = 20
_2THETA = 40
_KHI = 0
_PHI = 0
_X = 25
_Y = 25
_Z = 0
_DETECTOR = 1
; Detector type : Scintillation counter
_HV = 687
_GAIN = 80
_LLD = 0.69
_ULD = 1.866
_DETECTORSLIT = unkn
_AUX1 = 0
_AUX2 = 0
_AUX3 = 0
_TIMESTARTED = 28
_TEMP_RATE = -1
_TEMP_DELAY = -1
_KV = 35
_MA = 40
_RANGE_WL = 1.78897
_3DPLANE = 0
_V4_ADDITIONALDETECTOR = 0
_V4_D8_DIBNUM = 1
_V4_DETECTORNAME = "Detector 1"
_V4_TTLDETECTOR = None
_V4_DETECTORTYPE = 1
_V4_DETECTORFLAGS = 524545
_V4_DETECTORHV = 687
_V4_DETECTORGAIN = 80
_V4_DETECTORLLD1 = 0.69
_V4_DETECTORWW1 = 1.176
_V4_DETECTORLLD2 = 0
_V4_DETECTORWW2 = 0
_V4_DETECTORPS = 0
_V4_DETECTORDT = 0
_V4_DETECTORPILEUPTIME = 0
_V4_COUNTERS_MASK = 1
_V4_DRIVES_MASK = 0
_V4_ENCODERS_MASK = 0
_2THETACOUNTS = 1
; 2THETA  Cnt1_D1
  40.0000        580
  40.4000        526
  40.8000        474
  41.2000        527
  41.6000        496
  42.0000        509
  42.4000        555
  42.8000        593
  43.2000        559
  43.6000        567
  44.0000        552
  44.4000        556
  44.8000        521
  45.2000        548
  45.6000        521
  46.0000        516
  46.4000        567
  46.8000        555
  47.2000        507
  47.6000        522
  48.0000        511
  48.4000        576
  48.8000        564
  49.2000        529
  49.6000        566
  50.0000        518
  50.4000        509
  50.8000        558
  51.2000        585
  51.6000        783
  52.0000       1546
  52.4000       1571
  52.8000        646
  53.2000        589
  53.6000        507
  54.0000        528
  54.4000        523
  54.8000        543
  55.2000        530
  55.6000        546
  56.0000        522
  56.4000        512
  56.8000        520
  57.2000        524
  57.6000        530
  58.0000        545
  58.4000        517
  58.8000        549
  59.2000        546
  59.6000        568
  60.0000        567
  60.4000        534
  60.8000        536
  61.2000        550
  61.6000        478
  62.0000        531
  62.4000        529
  62.8000        545
  63.2000        522
  63.6000        518
  64.0000        523
  64.4000        484
  64.8000        526
  65.2000        544
  65.6000        538
  66.0000        533
  66.4000        536
  66.8000        555
  67.2000        515
  67.6000        525
  68.0000        542
  68.4000        527
  68.8000        518
  69.2000        479
  69.6000        522
  70.0000        524
  70.4000        508
  70.8000        525
  71.2000        537
  71.6000        559
  72.0000        533
  72.4000        499
  72.8000        513
  73.2000        527
  73.6000        534
  74.0000        498
  74.4000        526
  74.8000        510
  75.2000        518
  75.6000        525
  76.0000        545
  76.4000        776
  76.8000       1072
  77.2000        977
  77.6000        624
  78.0000        557
  78.4000        531
  78.8000        502
  79.2000        514
  79.6000        523
  80.0000        523
  80.4000        545
  80.8000        525
  81.2000        523
  81.6000        541
  82.0000        514
  82.4000        531
  82.8000        521
  83.2000        485
  83.6000        527
  84.0000        513
  84.4000        496
  84.8000        539
  85.2000        494
  85.6000        491
  86.0000        514
  86.4000        518
  86.8000        519
  87.2000        532
  87.6000        551
  88.0000        564
  88.4000        517
  88.8000        506
  89.2000        539
  89.6000        528
  90.0000        521
  90.4000        537
  90.8000        542
  91.2000        521
  91.6000        541
  92.0000        524
  92.4000        513
  92.8000        535
  93.2000        471
  93.6000        551
  94.0000        510
  94.4000        492
  94.8000        536
  95.2000        508
  95.6000        523
  96.0000        494
  96.4000        478
  96.8000        527
  97.2000        530
  97.6000        516
  98.0000        560
  98.4000        599
  98.8000        942
  99.2000       1441
  99.6000       1355
 100.0000        770
 100.4000        568
 100.8000        549
 101.2000        571
 101.6000        537
 102.0000        552
 102.4000        477
 102.8000        514
 103.2000        532
 103.6000        500
 104.0000        528
 104.4000        522
 104.8000        534
 105.2000        509
 105.6000        519
 106.0000        536
 106.4000        485
 106.8000        480
 107.2000        495
 107.6000        520
 108.0000        536
 108.4000        529
 108.8000        526
 109.2000        527
 109.6000        506
 110.0000        520
 110.4000        486
 110.8000        542
 111.2000        539
 111.6000        538
 112.0000        518
 112.4000        525
 112.8000        516
 113.2000        506
 113.6000        513
 114.0000        519
 114.4000        502
 114.8000        516
 115.2000        533
 115.6000        484
 116.0000        512
 116.4000        538
 116.8000        525
 117.2000        451
 117.6000        523
 118.0000        532
 118.4000        511
 118.8000        525
 119.2000        480
 119.6000        516
 120.0000        550
 120.4000        470
 120.8000        516
 121.2000        552
 121.6000        498
 122.0000        515
 122.4000        535
 122.8000        550
 123.2000        623
 123.6000        607
 124.0000        592
 124.4000        477
 124.8000        485
 125.2000        533
 125.6000        538
 126.0000        536
 126.4000        484
 126.8000        548
 127.2000        510
 127.6000        507
 128.0000        527
 128.4000        503
 128.8000        502
 129.2000        484
 129.6000        505
 130.0000        494

; Data for range 2
_DRIVE = COUPLED
_STEPTIME = 0.2
_STEPSIZE = 0.1
_STEPMODE = C
_START = 40
_THETA = 20
_2THETA = 40
_KHI = 10.5
_PHI = 60
_X = 25
_Y = 25
_Z = 0
_DETECTOR = 1
; Detector type : Scintillation counter
_HV = 687
_GAIN = 80
_LLD = 0.69
_ULD = 1.866
_DETECTORSLIT = unkn
_AUX1 = 0
_AUX2 = 0
_AUX3 = 0
_TIMESTARTED = 225
_TEMP_RATE = -1
_TEMP_DELAY = -1
_KV = 35
_MA = 40
_RANGE_WL = 1.78897
_3DPLANE = 0
_V4_ADDITIONALDETECTOR = 0
_V4_D8_DIBNUM = 1
_V4_DETECTORNAME = "Detector 1"
_V4_TTLDETECTOR = None
_V4_DETECTORTYPE = 1
_V4_DETECTORFLAGS = 524545
_V4_DETECTORHV = 687
_V4_DETECTORGAIN = 80
_V4_DETECTORLLD1 = 0.69
_V4_DETECTORWW1 = 1.176
_V4_DETECTORLLD2 = 0
_V4_DETECTORWW2 = 0
_V4_DETECTORPS = 0
_V4_DETECTORDT = 0
_V4_DETECTORPILEUPTIME = 0
_V4_COUNTERS_MASK = 1
_V4_DRIVES_MASK = 0
_V4_ENCODERS_MASK = 0
_2THETACOUNTS = 1
; 2THETA  Cnt1_D1
  40.0000        530
  40.4000        553
  40.8000        493
  41.2000        551
  41.6000        562
  42.0000        517
  42.4000        492
  42.8000        529
  43.2000        506
  43.6000        485
  44.0000        559
  44.4000        566
  44.8000        497
  45.2000        535
  45.6000        561
  46.0000        511
  46.4000        528
  46.8000        526
  47.2000        507
  47.6000        540
  48.0000        532
  48.4000        513
  48.8000        547
  49.2000        499
  49.6000        512
  50.0000        526
  50.4000        472
  50.8000        598
  51.2000        604
  51.6000        822
  52.0000       1443
  52.4000       1310
  52.8000        628
  53.2000        547
  53.6000        517
  54.0000        539
  54.4000        541
  54.8000        537
  55.2000        511
  55.6000        535
  56.0000        520
  56.4000        571
  56.8000        527
  57.2000        538
  57.6000        528
  58.0000        503
  58.4000        511
  58.8000        539
  59.2000        517
  59.6000        567
  60.0000        563
  60.4000        499
  60.8000        517
  61.2000        539
  61.6000        529
  62.0000        507
  62.4000        524
  62.8000        498
  63.2000        548
  63.6000        539
  64.0000        513
  64.4000        510
  64.8000        495
  65.2000        560
  65.6000        492
  66.0000        505
  66.4000        513
  66.8000        543
  67.2000        468
  67.6000        530
  68.0000        491
  68.4000        507
  68.8000        521
  69.2000        558
  69.6000        486
  70.0000        527
  70.4000        517
  70.8000        539
  71.2000        459
  71.6000        516
  72.0000        531
  72.4000        534
  72.8000        520
  73.2000        488
  73.6000        514
  74.0000        500
  74.4000        481
  74.8000        539
  75.2000        526
  75.6000        531
  76.0000        557
  76.4000        661
  76.8000        824
  77.2000        799
  77.6000        595
  78.0000        569
  78.4000        495
  78.8000        548
  79.2000        489
  79.6000        515
  80.0000        528
  80.4000        525
  80.8000        529
  81.2000        535
  81.6000        534
  82.0000        500
  82.4000        517
  82.8000        485
  83.2000        508
  83.6000        518
  84.0000        514
  84.4000        470
  84.8000        489
  85.2000        488
  85.6000        489
  86.0000        534
  86.4000        526
  86.8000        537
  87.2000        502
  87.6000        495
  88.0000        528
  88.4000        556
  88.8000        499
  89.2000        559
  89.6000        523
  90.0000        512
  90.4000        530
  90.8000        505
  91.2000        484
  91.6000        519
  92.0000        509
  92.4000        511
  92.8000        493
  93.2000        499
  93.6000        497
  94.0000        489
  94.4000        491
  94.8000        518
  95.2000        505
  95.6000        501
  96.0000        524
  96.4000        539
  96.8000        516
  97.2000        534
  97.6000        528
  98.0000        624
  98.4000        597
  98.8000        783
  99.2000       1080
  99.6000       1014
 100.0000        679
 100.4000        565
 100.8000        540
 101.2000        547
 101.6000        546
 102.0000        550
 102.4000        505
 102.8000        490
 103.2000        550
 103.6000        501
 104.0000        511
 104.4000        507
 104.8000        513
 105.2000        531
 105.6000        515
 106.0000        548
 106.4000        517
 106.8000        492
 107.2000        520
 107.6000        508
 108.0000        469
 108.4000        521
 108.8000        492
 109.2000        539
 109.6000        464
 110.0000        480
 110.4000        470
 110.8000        549
 111.2000        504
 111.6000        570
 112.0000        501
 112.4000        499
 112.8000        537
 113.2000        499
 113.6000        505
 114.0000        518
 114.4000        508
 114.8000        567
 115.2000        524
 115.6000        524
 116.0000        502
 116.4000        504
 116.8000        548
 117.2000        540
 117.6000        525
 118.0000        487
 118.4000        517
 118.8000        508
 119.2000        523
 119.6000        514
 120.0000        537
 120.4000        545
 120.8000        515
 121.2000        499
 121.6000        486
 122.0000        484
 122.4000        553
 122.8000        540
 123.2000        577
 123.6000        564
 124.0000        576
 124.4000        564
 124.8000        494
 125.2000        547
 125.6000        545
 126.0000        535
 126.4000        552
 126.8000        534
 127.2000        500
 127.6000        494
 128.0000        533
 128.4000        450
 128.8000        519
 129.2000        539
 129.6000        523
 130.0000        503

; Data for range 3
_DRIVE = COUPLED
_STEPTIME = 0.2
_STEPSIZE = 0.1
_STEPMODE = C
_START = 40
_THETA = 20
_2THETA = 40
_KHI = 18.3
_PHI = 90
_X = 25
_Y = 25
_Z = 0
_DETECTOR = 1
; Detector type : Scintillation counter
_HV = 687
_GAIN = 80
_LLD = 0.69
_ULD = 1.866
_DETECTORSLIT = unkn
_AUX1 = 0
_AUX2 = 0
_AUX3 = 0
_TIMESTARTED = 423
_TEMP_RATE = -1
_TEMP_DELAY = -1
_KV = 35
_MA = 40
_RANGE_WL = 1.78897
_3DPLANE = 0
_V4_ADDITIONALDETECTOR = 0
_V4_D8_DIBNUM = 1
_V4_DETECTORNAME = "Detector 1"
_V4_TTLDETECTOR = None
_V4_DETECTORTYPE = 1
_V4_DETECTORFLAGS = 524545
_V4_DETECTORHV = 687
_V4_DETECTORGAIN = 80
_V4_DETECTORLLD1 = 0.69
_V4_DETECTORWW1 = 1.176
_V4_DETECTORLLD2 = 0
_V4_DETECTORWW2 = 0
_V4_DETECTORPS = 0
_V4_DETECTORDT = 0
_V4_DETECTORPILEUPTIME = 0
_V4_COUNTERS_MASK = 1
_V4_DRIVES_MASK = 0
_V4_ENCODERS_MASK = 0
_2THETACOUNTS = 1
; 2THETA  Cnt1_D1
  40.0000        480
  40.4000        503
  40.8000        544
  41.2000        496
  41.6000        507
  42.0000        535
  42.4000        558
  42.8000        510
  43.2000        571
  43.6000        493
  44.0000        527
  44.4000        516
  44.8000        521
  45.2000        484
  45.6000        488
  46.0000        527
  46.4000        535
  46.8000        537
  47.2000        516
  47.6000        527
  48.0000        520
  48.4000        496
  48.8000        501
  49.2000        542
  49.6000        523
  50.0000        517
  50.4000        567
  50.8000        664
  51.2000        728
  51.6000       1310
  52.0000       2464
  52.4000       2025
  52.8000        756
  53.2000        583
  53.6000        526
  54.0000        557
  54.4000        514
  54.8000        513
  55.2000        492
  55.6000        525
  56.0000        578
  56.4000        504
  56.8000        499
  57.2000        540
  57.6000        547
  58.0000        552
  58.4000        519
  58.8000        499
  59.2000        561
  59.6000        535
  60.0000        502
  60.4000        588
  60.8000        527
  61.2000        541
  61.6000        491
  62.0000        545
  62.4000        505
  62.8000        540
  63.2000        516
  63.6000        544
  64.0000        528
  64.4000        535
  64.8000        510
  65.2000        526
  65.6000        490
  66.0000        507
  66.4000        549
  66.8000        497
  67.2000        521
  67.6000        527
  68.0000        515
  68.4000        495
  68.8000        511
  69.2000        493
  69.6000        511
  70.0000        546
  70.4000        510
  70.8000        527
  71.2000        511
  71.6000        492
  72.0000        522
  72.4000        540
  72.8000        487
  73.2000        537
  73.6000        531
  74.0000        491
  74.4000        511
  74.8000        532
  75.2000        535
  75.6000        533
  76.0000        502
  76.4000        558
  76.8000        612
  77.2000        584
  77.6000        557
  78.0000        516
  78.4000        566
  78.8000        515
  79.2000        522
  79.6000        532
  80.0000        502
  80.4000        515
  80.8000        522
  81.2000        524
  81.6000        495
  82.0000        533
  82.4000        512
  82.8000        524
  83.2000        521
  83.6000        485
  84.0000        474
  84.4000        514
  84.8000        526
  85.2000        526
  85.6000        530
  86.0000        535
  86.4000        510
  86.8000        475
  87.2000        532
  87.6000        534
  88.0000        522
  88.4000        499
  88.8000        475
  89.2000        531
  89.6000        526
  90.0000        508
  90.4000        508
  90.8000        501
  91.2000        527
  91.6000        530
  92.0000        546
  92.4000        515
  92.8000        534
  93.2000        515
  93.6000        494
  94.0000        515
  94.4000        499
  94.8000        477
  95.2000        468
  95.6000        530
  96.0000        521
  96.4000        521
  96.8000        551
  97.2000        542
  97.6000        538
  98.0000        501
  98.4000        519
  98.8000        761
  99.2000        914
  99.6000        889
 100.0000        631
 100.4000        559
 100.8000        542
 101.2000        490
 101.6000        532
 102.0000        538
 102.4000        496
 102.8000        499
 103.2000        497
 103.6000        492
 104.0000        521
 104.4000        490
 104.8000        468
 105.2000        534
 105.6000        491
 106.0000        529
 106.4000        515
 106.8000        527
 107.2000        514
 107.6000        482
 108.0000        511
 108.4000        552
 108.8000        548
 109.2000        476
 109.6000        516
 110.0000        548
 110.4000        544
 110.8000        501
 111.2000        548
 111.6000        488
 112.0000        592
 112.4000        486
 112.8000        483
 113.2000        477
 113.6000        517
 114.0000        483
 114.4000        515
 114.8000        532
 115.2000        504
 115.6000        509
 116.0000        532
 116.4000        507
 116.8000        502
 117.2000        481
 117.6000        486
 118.0000        515
 118.4000        521
 118.8000        542
 119.2000        545
 119.6000        535
 120.0000        517
 120.4000        562
 120.8000        495
 121.2000        501
 121.6000        513
[...]
  72.4000        248
  72.8000        283
  73.2000        283
  73.6000        276
  74.0000        254
  74.4000        268
  74.8000        310
  75.2000        335
  75.6000        317
  76.0000        281
  76.4000        309
  76.8000        346
  77.2000        337
  77.6000        305
  78.0000        283
  78.4000        321
  78.8000        295
  79.2000        282
  79.6000        308
  80.0000        321
  80.4000        288
  80.8000        290
  81.2000        316
  81.6000        292
  82.0000        311
  82.4000        304
  82.8000        305
  83.2000        290
  83.6000        307
  84.0000        296
  84.4000        284
  84.8000        314
  85.2000        318
  85.6000        273
  86.0000        315
  86.4000        311
  86.8000        294
  87.2000        314
  87.6000        279
  88.0000        332
  88.4000        357
  88.8000        318
  89.2000        311
  89.6000        312
  90.0000        306
  90.4000        324
  90.8000        296
  91.2000        318
  91.6000        365
  92.0000        363
  92.4000        353
  92.8000        335
  93.2000        312
  93.6000        321
  94.0000        330
  94.4000        331
  94.8000        305
  95.2000        312
  95.6000        289
  96.0000        324
  96.4000        306
  96.8000        357
  97.2000        360
  97.6000        329
  98.0000        343
  98.4000        404
  98.8000        515
  99.2000        589
  99.6000        497
 100.0000        454
 100.4000        389
 100.8000        342
 101.2000        332
 101.6000        302
 102.0000        328
 102.4000        325
 102.8000        315
 103.2000        325
 103.6000        329
 104.0000        343
 104.4000        385
 104.8000        358
 105.2000        305
 105.6000        354
 106.0000        355
 106.4000        347
 106.8000        351
 107.2000        356
 107.6000        316
 108.0000        333
 108.4000        349
 108.8000        344
 109.2000        364
 109.6000        354
 110.0000        334
 110.4000        345
 110.8000        359
 111.2000        408
 111.6000        356
 112.0000        388
 112.4000        348
 112.8000        307
 113.2000        325
 113.6000        356
 114.0000        340
 114.4000        330
 114.8000        362
 115.2000        350
 115.6000        379
 116.0000        353
 116.4000        359
 116.8000        346
 117.2000        371
 117.6000        362
 118.0000        375
 118.4000        381
 118.8000        395
 119.2000        372
 119.6000        348
 120.0000        369
 120.4000        356
 120.8000        329
 121.2000        320
 121.6000        372
 122.0000        417
 122.4000        372
 122.8000        425
 123.2000        455
 123.6000        482
 124.0000        402
 124.4000        412
 124.8000        419
 125.2000        361
 125.6000        377
 126.0000        385
 126.4000        380
 126.8000        352
 127.2000        349
 127.6000        364
 128.0000        393
 128.4000        377
 128.8000        344
 129.2000        365
 129.6000        339
 130.0000        369

; Data for range 53
_DRIVE = COUPLED
_STEPTIME = 0.2
_STEPSIZE = 0.1
_STEPMODE = C
_START = 40
_THETA = 20
_2THETA = 40
_KHI = 80
_PHI = 0
_X = 25
_Y = 25
_Z = 0
_DETECTOR = 1
; Detector type : Scintillation counter
_HV = 687
_GAIN = 80
_LLD = 0.69
_ULD = 1.866
_DETECTORSLIT = unkn
_AUX1 = 0
_AUX2 = 0
_AUX3 = 0
_TIMESTARTED = 1.03e+004
_TEMP_RATE = -1
_TEMP_DELAY = -1
_KV = 35
_MA = 40
_RANGE_WL = 1.78897
_3DPLANE = 0
_V4_ADDITIONALDETECTOR = 0
_V4_D8_DIBNUM = 1
_V4_DETECTORNAME = "Detector 1"
_V4_TTLDETECTOR = None
_V4_DETECTORTYPE = 1
_V4_DETECTORFLAGS = 524545
_V4_DETECTORHV = 687
_V4_DETECTORGAIN = 80
_V4_DETECTORLLD1 = 0.69
_V4_DETECTORWW1 = 1.176
_V4_DETECTORLLD2 = 0
_V4_DETECTORWW2 = 0
_V4_DETECTORPS = 0
_V4_DETECTORDT = 0
_V4_DETECTORPILEUPTIME = 0
_V4_COUNTERS_MASK = 1
_V4_DRIVES_MASK = 0
_V4_ENCODERS_MASK = 0
_2THETACOUNTS = 1
; 2THETA  Cnt1_D1
  40.0000        176
  40.4000        181
  40.8000        174
  41.2000        179
  41.6000        170
  42.0000        212
  42.4000        223
  42.8000        307
  43.2000        287
  43.6000        240
  44.0000        188
  44.4000        180
  44.8000        199
  45.2000        179
  45.6000        186
  46.0000        177
  46.4000        203
  46.8000        187
  47.2000        210
  47.6000        212
  48.0000        201
  48.4000        202
  48.8000        221
  49.2000        186
  49.6000        215
  50.0000        264
  50.4000        296
  50.8000        314
  51.2000        443
  51.6000        757
  52.0000        986
  52.4000        849
  52.8000        625
  53.2000        378
  53.6000        253
  54.0000        240
  54.4000        237
  54.8000        215
  55.2000        239
  55.6000        216
  56.0000        230
  56.4000        239
  56.8000        208
  57.2000        235
  57.6000        246
  58.0000        239
  58.4000        262
  58.8000        271
  59.2000        226
  59.6000        236
  60.0000        251
  60.4000        225
  60.8000        227
  61.2000        237
  61.6000        266
  62.0000        228
  62.4000        243
  62.8000        244
  63.2000        258
  63.6000        235
  64.0000        271
  64.4000        256
  64.8000        276
  65.2000        243
  65.6000        276
  66.0000        292
  66.4000        247
  66.8000        291
  67.2000        284
  67.6000        294
  68.0000        270
  68.4000        274
  68.8000        283
  69.2000        282
  69.6000        253
  70.0000        297
  70.4000        282
  70.8000        278
  71.2000        271
  71.6000        256
  72.0000        279
  72.4000        264
  72.8000        289
  73.2000        297
  73.6000        311
  74.0000        300
  74.4000        293
  74.8000        341
  75.2000        299
  75.6000        334
  76.0000        319
  76.4000        332
  76.8000        393
  77.2000        399
  77.6000        344
  78.0000        338
  78.4000        318
  78.8000        336
  79.2000        330
  79.6000        304
  80.0000        333
  80.4000        339
  80.8000        302
  81.2000        322
  81.6000        352
  82.0000        332
  82.4000        329
  82.8000        309
  83.2000        315
  83.6000        330
  84.0000        335
  84.4000        331
  84.8000        323
  85.2000        340
  85.6000        333
  86.0000        311
  86.4000        357
  86.8000        331
  87.2000        356
  87.6000        331
  88.0000        313
  88.4000        358
  88.8000        363
  89.2000        350
  89.6000        337
  90.0000        370
  90.4000        374
  90.8000        366
  91.2000        347
  91.6000        392
  92.0000        370
  92.4000        337
  92.8000        333
  93.2000        343
  93.6000        371
  94.0000        342
  94.4000        331
  94.8000        347
  95.2000        359
  95.6000        337
  96.0000        337
  96.4000        335
  96.8000        371
  97.2000        367
  97.6000        366
  98.0000        430
  98.4000        489
  98.8000        564
  99.2000        587
  99.6000        560
 100.0000        520
 100.4000        443
 100.8000        382
 101.2000        379
 101.6000        396
 102.0000        385
 102.4000        377
 102.8000        388
 103.2000        386
 103.6000        367
 104.0000        412
 104.4000        356
 104.8000        371
 105.2000        383
 105.6000        363
 106.0000        368
 106.4000        363
 106.8000        402
 107.2000        349
 107.6000        373
 108.0000        384
 108.4000        349
 108.8000        388
 109.2000        401
 109.6000        404
 110.0000        435
 110.4000        366
 110.8000        395
 111.2000        395
 111.6000        390
 112.0000        396
 112.4000        387
 112.8000        374
 113.2000        403
 113.6000        406
 114.0000        363
 114.4000        379
 114.8000        343
 115.2000        360
 115.6000        391
 116.0000        339
 116.4000        368
 116.8000        367
 117.2000        383
 117.6000        384
 118.0000        371
 118.4000        360
 118.8000        384
 119.2000        385
 119.6000        389
 120.0000        391
 120.4000        390
 120.8000        373
 121.2000        396
 121.6000        411
 122.0000        403
 122.4000        465
 122.8000        491
 123.2000        521
 123.6000        463
 124.0000        473
 124.4000        383
 124.8000        376
 125.2000        427
 125.6000        363
 126.0000        407
 126.4000        434
 126.8000        392
 127.2000        359
 127.6000        385
 128.0000        390
 128.4000        388
 128.8000        390
 129.2000        371
 129.6000        381
 130.0000        413