File: exp_dat/old/exp_2013_11_11/27pct_-50G.uxd
; (content of file C:\DIFFDAT1\GIFT\MDL\Seawoong Lee\20131104_MV8\equal_area_maxkhi080_n8_2th40_130_x00y-25_-50g.raw)
_FILEVERSION = 3
_SAMPLE =
_+SAMPLE =
_SITE = Korea
_USER = Admin
_GONIOMETER_CODE = 20
; Goniometer : D8 theta/2theta, stage : Unknown
_SAMPLE_CHANGER_CODE = 0
_ATTACHMENTS_CODE = 0
_GONIOMETER_RADIUS = 300
_FIXED_DIVSLIT = 1
_FIXED_SAMPLESLIT = 0
_SOLLER_SLITS = 2
_FIXED_DETSLIT = 0.1
_MONOCHROMATOR = 0
; Incident beam monochromator : None
_SOLLER_SLITS_2 = 2
_THIN_FILM = N
_BETA_FILTER = Y
_FIXED_ANTISLIT = 0.6
_ANALYZER_CODE = 0
; Received beam analyzer : None
_DATEMEASURED = "07-Nov-2013 21:24:56"
_WL_UNIT = A
_WL1 = 1.78897
_WL2 = 1.79285
_WL3 = 1.62079
_WLRATIO = 0.5
_ANODE = Co
_V4_INF_CREATOR = XRDWizard
_V4_INF_CREATOR_VERSION = V2.9.0.22
_V4_INF_WIZARD_VERSION = V2.9.0.22
_V4_INF_WIZARD_ADDINS = V2.9.0.22
_V4_INF_WIZARD_DOCTYPE = XRD
_V4_INF_OSUSER = Postech
_V4_INF_USER = Admin
_V4_INF_SITE = Korea

; Data for range 1
_DRIVE = COUPLED
_STEPTIME = 0.2
_STEPSIZE = 0.1
_STEPMODE = C
_START = 40
_THETA = 20
_2THETA = 40
_KHI = 0
_PHI = 0
_X = 0
_Y = -25
_Z = 0
_DETECTOR = 1
; Detector type : Scintillation counter
_HV = 687
_GAIN = 80
_LLD = 0.69
_ULD = 1.866
_DETECTORSLIT = unkn
_AUX1 = 0
_AUX2 = 0
_AUX3 = 0
_TIMESTARTED = 28
_TEMP_RATE = -1
_TEMP_DELAY = -1
_KV = 35
_MA = 40
_RANGE_WL = 1.78897
_3DPLANE = 0
_V4_ADDITIONALDETECTOR = 0
_V4_D8_DIBNUM = 1
_V4_DETECTORNAME = "Detector 1"
_V4_TTLDETECTOR = None
_V4_DETECTORTYPE = 1
_V4_DETECTORFLAGS = 524545
_V4_DETECTORHV = 687
_V4_DETECTORGAIN = 80
_V4_DETECTORLLD1 = 0.69
_V4_DETECTORWW1 = 1.176
_V4_DETECTORLLD2 = 0
_V4_DETECTORWW2 = 0
_V4_DETECTORPS = 0
_V4_DETECTORDT = 0
_V4_DETECTORPILEUPTIME = 0
_V4_COUNTERS_MASK = 1
_V4_DRIVES_MASK = 0
_V4_ENCODERS_MASK = 0
_2THETACOUNTS = 1
; 2THETA  Cnt1_D1
  40.0000        459
  40.4000        442
  40.8000        458
  41.2000        417
  41.6000        475
  42.0000        440
  42.4000        477
  42.8000        458
  43.2000        427
  43.6000        443
  44.0000        457
  44.4000        486
  44.8000        446
  45.2000        466
  45.6000        478
  46.0000        495
  46.4000        508
  46.8000        513
  47.2000        510
  47.6000        456
  48.0000        460
  48.4000        490
  48.8000        451
  49.2000        446
  49.6000        518
  50.0000        490
  50.4000        510
  50.8000        559
  51.2000        527
  51.6000        717
  52.0000       1125
  52.4000       1097
  52.8000        633
  53.2000        520
  53.6000        485
  54.0000        539
  54.4000        512
  54.8000        499
  55.2000        515
  55.6000        522
  56.0000        488
  56.4000        514
  56.8000        512
  57.2000        514
  57.6000        538
  58.0000        545
  58.4000        488
  58.8000        530
  59.2000        527
  59.6000        513
  60.0000        541
  60.4000        531
  60.8000        535
  61.2000        515
  61.6000        515
  62.0000        550
  62.4000        500
  62.8000        527
  63.2000        518
  63.6000        518
  64.0000        511
  64.4000        541
  64.8000        536
  65.2000        515
  65.6000        501
  66.0000        523
  66.4000        489
  66.8000        469
  67.2000        558
  67.6000        506
  68.0000        517
  68.4000        560
  68.8000        549
  69.2000        548
  69.6000        484
  70.0000        535
  70.4000        495
  70.8000        517
  71.2000        518
  71.6000        565
  72.0000        521
  72.4000        487
  72.8000        536
  73.2000        513
  73.6000        551
  74.0000        469
  74.4000        479
  74.8000        544
  75.2000        513
  75.6000        530
  76.0000        615
  76.4000        916
  76.8000       1147
  77.2000        874
  77.6000        589
  78.0000        555
  78.4000        540
  78.8000        563
  79.2000        527
  79.6000        526
  80.0000        487
  80.4000        506
  80.8000        465
  81.2000        535
  81.6000        516
  82.0000        541
  82.4000        508
  82.8000        518
  83.2000        485
  83.6000        560
  84.0000        511
  84.4000        507
  84.8000        522
  85.2000        573
  85.6000        514
  86.0000        485
  86.4000        537
  86.8000        484
  87.2000        524
  87.6000        528
  88.0000        517
  88.4000        545
  88.8000        498
  89.2000        499
  89.6000        504
  90.0000        535
  90.4000        539
  90.8000        525
  91.2000        499
  91.6000        519
  92.0000        519
  92.4000        535
  92.8000        512
  93.2000        529
  93.6000        497
  94.0000        532
  94.4000        521
  94.8000        537
  95.2000        519
  95.6000        538
  96.0000        519
  96.4000        525
  96.8000        537
  97.2000        561
  97.6000        576
  98.0000        587
  98.4000        683
  98.8000       1216
  99.2000       1589
  99.6000       1311
 100.0000        764
 100.4000        621
 100.8000        589
 101.2000        504
 101.6000        515
 102.0000        493
 102.4000        540
 102.8000        462
 103.2000        505
 103.6000        525
 104.0000        501
 104.4000        540
 104.8000        527
 105.2000        523
 105.6000        535
 106.0000        515
 106.4000        473
 106.8000        559
 107.2000        506
 107.6000        467
 108.0000        541
 108.4000        500
 108.8000        529
 109.2000        516
 109.6000        503
 110.0000        514
 110.4000        486
 110.8000        527
 111.2000        507
 111.6000        544
 112.0000        521
 112.4000        538
 112.8000        478
 113.2000        479
 113.6000        540
 114.0000        536
 114.4000        508
 114.8000        509
 115.2000        513
 115.6000        469
 116.0000        492
 116.4000        523
 116.8000        537
 117.2000        541
 117.6000        507
 118.0000        506
 118.4000        534
 118.8000        473
 119.2000        507
 119.6000        556
 120.0000        509
 120.4000        496
 120.8000        558
 121.2000        515
 121.6000        523
 122.0000        515
 122.4000        522
 122.8000        568
 123.2000        582
 123.6000        551
 124.0000        519
 124.4000        539
 124.8000        546
 125.2000        533
 125.6000        516
 126.0000        539
 126.4000        509
 126.8000        499
 127.2000        500
 127.6000        506
 128.0000        496
 128.4000        531
 128.8000        521
 129.2000        535
 129.6000        536
 130.0000        546

; Data for range 2
_DRIVE = COUPLED
_STEPTIME = 0.2
_STEPSIZE = 0.1
_STEPMODE = C
_START = 40
_THETA = 20
_2THETA = 40
_KHI = 10.5
_PHI = 60
_X = 0
_Y = -25
_Z = 0
_DETECTOR = 1
; Detector type : Scintillation counter
_HV = 687
_GAIN = 80
_LLD = 0.69
_ULD = 1.866
_DETECTORSLIT = unkn
_AUX1 = 0
_AUX2 = 0
_AUX3 = 0
_TIMESTARTED = 225
_TEMP_RATE = -1
_TEMP_DELAY = -1
_KV = 35
_MA = 40
_RANGE_WL = 1.78897
_3DPLANE = 0
_V4_ADDITIONALDETECTOR = 0
_V4_D8_DIBNUM = 1
_V4_DETECTORNAME = "Detector 1"
_V4_TTLDETECTOR = None
_V4_DETECTORTYPE = 1
_V4_DETECTORFLAGS = 524545
_V4_DETECTORHV = 687
_V4_DETECTORGAIN = 80
_V4_DETECTORLLD1 = 0.69
_V4_DETECTORWW1 = 1.176
_V4_DETECTORLLD2 = 0
_V4_DETECTORWW2 = 0
_V4_DETECTORPS = 0
_V4_DETECTORDT = 0
_V4_DETECTORPILEUPTIME = 0
_V4_COUNTERS_MASK = 1
_V4_DRIVES_MASK = 0
_V4_ENCODERS_MASK = 0
_2THETACOUNTS = 1
; 2THETA  Cnt1_D1
  40.0000        546
  40.4000        518
  40.8000        528
  41.2000        512
  41.6000        546
  42.0000        522
  42.4000        534
  42.8000        573
  43.2000        535
  43.6000        517
  44.0000        508
  44.4000        542
  44.8000        523
  45.2000        528
  45.6000        498
  46.0000        521
  46.4000        484
  46.8000        500
  47.2000        545
  47.6000        545
  48.0000        477
  48.4000        528
  48.8000        512
  49.2000        511
  49.6000        546
  50.0000        523
  50.4000        539
  50.8000        563
  51.2000        541
  51.6000        852
  52.0000       1247
  52.4000       1256
  52.8000        649
  53.2000        548
  53.6000        519
  54.0000        541
  54.4000        490
  54.8000        507
  55.2000        515
  55.6000        526
  56.0000        528
  56.4000        526
  56.8000        475
  57.2000        563
  57.6000        526
  58.0000        519
  58.4000        578
  58.8000        508
  59.2000        499
  59.6000        574
  60.0000        500
  60.4000        549
  60.8000        538
  61.2000        496
  61.6000        515
  62.0000        517
  62.4000        502
  62.8000        495
  63.2000        483
  63.6000        518
  64.0000        521
  64.4000        508
  64.8000        549
  65.2000        512
  65.6000        550
  66.0000        511
  66.4000        503
  66.8000        539
  67.2000        503
  67.6000        555
  68.0000        530
  68.4000        526
  68.8000        474
  69.2000        530
  69.6000        496
  70.0000        516
  70.4000        505
  70.8000        503
  71.2000        496
  71.6000        563
  72.0000        543
  72.4000        505
  72.8000        452
  73.2000        477
  73.6000        492
  74.0000        530
  74.4000        522
  74.8000        519
  75.2000        587
  75.6000        534
  76.0000        609
  76.4000        723
  76.8000        793
  77.2000        719
  77.6000        599
  78.0000        543
  78.4000        523
  78.8000        533
  79.2000        547
  79.6000        487
  80.0000        486
  80.4000        523
  80.8000        508
  81.2000        521
  81.6000        537
  82.0000        493
  82.4000        519
  82.8000        520
  83.2000        509
  83.6000        511
  84.0000        532
  84.4000        499
  84.8000        504
  85.2000        532
  85.6000        484
  86.0000        498
  86.4000        515
  86.8000        504
  87.2000        486
  87.6000        465
  88.0000        555
  88.4000        527
  88.8000        507
  89.2000        530
  89.6000        516
  90.0000        510
  90.4000        486
  90.8000        523
  91.2000        505
  91.6000        509
  92.0000        508
  92.4000        554
  92.8000        531
  93.2000        509
  93.6000        550
  94.0000        529
  94.4000        515
  94.8000        498
  95.2000        518
  95.6000        552
  96.0000        520
  96.4000        537
  96.8000        494
  97.2000        508
  97.6000        547
  98.0000        527
  98.4000        612
  98.8000        882
  99.2000       1085
  99.6000        999
 100.0000        702
 100.4000        581
 100.8000        539
 101.2000        518
 101.6000        518
 102.0000        564
 102.4000        517
 102.8000        540
 103.2000        522
 103.6000        509
 104.0000        514
 104.4000        525
 104.8000        518
 105.2000        474
 105.6000        520
 106.0000        485
 106.4000        519
 106.8000        489
 107.2000        567
 107.6000        542
 108.0000        529
 108.4000        509
 108.8000        541
 109.2000        533
 109.6000        527
 110.0000        505
 110.4000        513
 110.8000        501
 111.2000        546
 111.6000        464
 112.0000        492
 112.4000        474
 112.8000        536
 113.2000        519
 113.6000        540
 114.0000        544
 114.4000        558
 114.8000        496
 115.2000        523
 115.6000        513
 116.0000        521
 116.4000        505
 116.8000        474
 117.2000        518
 117.6000        539
 118.0000        509
 118.4000        489
 118.8000        547
 119.2000        480
 119.6000        496
 120.0000        519
 120.4000        538
 120.8000        506
 121.2000        532
 121.6000        505
 122.0000        514
 122.4000        479
 122.8000        603
 123.2000        518
 123.6000        568
 124.0000        571
 124.4000        496
 124.8000        463
 125.2000        509
 125.6000        518
 126.0000        530
 126.4000        507
 126.8000        508
 127.2000        514
 127.6000        504
 128.0000        496
 128.4000        520
 128.8000        540
 129.2000        524
 129.6000        516
 130.0000        512

; Data for range 3
_DRIVE = COUPLED
_STEPTIME = 0.2
_STEPSIZE = 0.1
_STEPMODE = C
_START = 40
_THETA = 20
_2THETA = 40
_KHI = 18.3
_PHI = 90
_X = 0
_Y = -25
_Z = 0
_DETECTOR = 1
; Detector type : Scintillation counter
_HV = 687
_GAIN = 80
_LLD = 0.69
_ULD = 1.866
_DETECTORSLIT = unkn
_AUX1 = 0
_AUX2 = 0
_AUX3 = 0
_TIMESTARTED = 422
_TEMP_RATE = -1
_TEMP_DELAY = -1
_KV = 35
_MA = 40
_RANGE_WL = 1.78897
_3DPLANE = 0
_V4_ADDITIONALDETECTOR = 0
_V4_D8_DIBNUM = 1
_V4_DETECTORNAME = "Detector 1"
_V4_TTLDETECTOR = None
_V4_DETECTORTYPE = 1
_V4_DETECTORFLAGS = 524545
_V4_DETECTORHV = 687
_V4_DETECTORGAIN = 80
_V4_DETECTORLLD1 = 0.69
_V4_DETECTORWW1 = 1.176
_V4_DETECTORLLD2 = 0
_V4_DETECTORWW2 = 0
_V4_DETECTORPS = 0
_V4_DETECTORDT = 0
_V4_DETECTORPILEUPTIME = 0
_V4_COUNTERS_MASK = 1
_V4_DRIVES_MASK = 0
_V4_ENCODERS_MASK = 0
_2THETACOUNTS = 1
; 2THETA  Cnt1_D1
  40.0000        530
  40.4000        496
  40.8000        536
  41.2000        557
  41.6000        484
  42.0000        522
  42.4000        500
  42.8000        519
  43.2000        521
  43.6000        503
  44.0000        569
  44.4000        506
  44.8000        547
  45.2000        511
  45.6000        524
  46.0000        516
  46.4000        540
  46.8000        531
  47.2000        518
  47.6000        555
  48.0000        499
  48.4000        519
  48.8000        494
  49.2000        530
  49.6000        502
  50.0000        538
  50.4000        519
  50.8000        559
  51.2000        638
  51.6000       1358
  52.0000       2188
  52.4000       2002
  52.8000        816
  53.2000        534
  53.6000        509
  54.0000        539
  54.4000        513
  54.8000        546
  55.2000        551
  55.6000        553
  56.0000        579
  56.4000        529
  56.8000        542
  57.2000        528
  57.6000        544
  58.0000        546
  58.4000        529
  58.8000        522
  59.2000        478
  59.6000        555
  60.0000        533
  60.4000        537
  60.8000        517
  61.2000        515
  61.6000        521
  62.0000        488
  62.4000        520
  62.8000        488
  63.2000        518
  63.6000        505
  64.0000        524
  64.4000        532
  64.8000        478
  65.2000        522
  65.6000        543
  66.0000        499
  66.4000        497
  66.8000        512
  67.2000        487
  67.6000        507
  68.0000        495
  68.4000        514
  68.8000        490
  69.2000        561
  69.6000        497
  70.0000        543
  70.4000        517
  70.8000        508
  71.2000        528
  71.6000        526
  72.0000        477
  72.4000        494
  72.8000        507
  73.2000        521
  73.6000        477
  74.0000        534
  74.4000        480
  74.8000        547
  75.2000        500
  75.6000        512
  76.0000        486
  76.4000        522
  76.8000        631
  77.2000        566
  77.6000        551
  78.0000        528
  78.4000        527
  78.8000        493
  79.2000        504
  79.6000        535
  80.0000        479
  80.4000        529
  80.8000        519
  81.2000        515
  81.6000        480
  82.0000        524
  82.4000        509
  82.8000        479
  83.2000        451
  83.6000        486
  84.0000        537
  84.4000        526
  84.8000        462
  85.2000        546
  85.6000        485
  86.0000        484
  86.4000        450
  86.8000        489
  87.2000        500
  87.6000        505
  88.0000        498
  88.4000        546
  88.8000        536
  89.2000        475
  89.6000        483
  90.0000        503
  90.4000        491
  90.8000        497
  91.2000        488
  91.6000        484
  92.0000        510
  92.4000        474
  92.8000        500
  93.2000        459
  93.6000        506
  94.0000        489
  94.4000        502
  94.8000        476
  95.2000        487
  95.6000        546
  96.0000        513
  96.4000        548
  96.8000        505
  97.2000        563
  97.6000        538
  98.0000        517
  98.4000        557
  98.8000        711
  99.2000        881
  99.6000        809
 100.0000        624
 100.4000        562
 100.8000        524
 101.2000        504
 101.6000        541
 102.0000        516
 102.4000        494
 102.8000        513
 103.2000        514
 103.6000        520
 104.0000        529
 104.4000        517
 104.8000        521
 105.2000        537
 105.6000        529
 106.0000        501
 106.4000        495
 106.8000        505
 107.2000        519
 107.6000        454
 108.0000        518
 108.4000        533
 108.8000        522
 109.2000        516
 109.6000        528
 110.0000        488
 110.4000        472
 110.8000        542
 111.2000        518
 111.6000        462
 112.0000        547
 112.4000        527
 112.8000        497
 113.2000        510
 113.6000        491
 114.0000        509
 114.4000        550
 114.8000        508
 115.2000        514
 115.6000        514
 116.0000        507
 116.4000        530
 116.8000        519
 117.2000        511
 117.6000        521
 118.0000        507
 118.4000        531
 118.8000        488
 119.2000        538
 119.6000        538
 120.0000        511
 120.4000        500
 120.8000        524
 121.2000        523
 121.6000        524
[...]
  72.4000        325
  72.8000        338
  73.2000        298
  73.6000        292
  74.0000        358
  74.4000        374
  74.8000        321
  75.2000        392
  75.6000        355
  76.0000        383
  76.4000        410
  76.8000        404
  77.2000        431
  77.6000        474
  78.0000        367
  78.4000        350
  78.8000        376
  79.2000        325
  79.6000        355
  80.0000        325
  80.4000        390
  80.8000        322
  81.2000        317
  81.6000        374
  82.0000        401
  82.4000        354
  82.8000        361
  83.2000        346
  83.6000        327
  84.0000        339
  84.4000        335
  84.8000        384
  85.2000        347
  85.6000        358
  86.0000        374
  86.4000        335
  86.8000        355
  87.2000        385
  87.6000        352
  88.0000        347
  88.4000        388
  88.8000        365
  89.2000        356
  89.6000        375
  90.0000        377
  90.4000        383
  90.8000        355
  91.2000        409
  91.6000        400
  92.0000        429
  92.4000        389
  92.8000        392
  93.2000        408
  93.6000        324
  94.0000        375
  94.4000        383
  94.8000        389
  95.2000        372
  95.6000        375
  96.0000        357
  96.4000        405
  96.8000        392
  97.2000        394
  97.6000        398
  98.0000        446
  98.4000        529
  98.8000        567
  99.2000        636
  99.6000        652
 100.0000        563
 100.4000        433
 100.8000        415
 101.2000        437
 101.6000        354
 102.0000        393
 102.4000        379
 102.8000        376
 103.2000        355
 103.6000        393
 104.0000        393
 104.4000        411
 104.8000        386
 105.2000        402
 105.6000        386
 106.0000        358
 106.4000        363
 106.8000        384
 107.2000        413
 107.6000        395
 108.0000        381
 108.4000        426
 108.8000        368
 109.2000        399
 109.6000        387
 110.0000        404
 110.4000        424
 110.8000        438
 111.2000        372
 111.6000        402
 112.0000        395
 112.4000        399
 112.8000        389
 113.2000        374
 113.6000        420
 114.0000        382
 114.4000        451
 114.8000        408
 115.2000        414
 115.6000        392
 116.0000        418
 116.4000        401
 116.8000        420
 117.2000        413
 117.6000        419
 118.0000        420
 118.4000        432
 118.8000        422
 119.2000        398
 119.6000        427
 120.0000        427
 120.4000        471
 120.8000        418
 121.2000        413
 121.6000        464
 122.0000        422
 122.4000        529
 122.8000        529
 123.2000        543
 123.6000        503
 124.0000        494
 124.4000        459
 124.8000        439
 125.2000        431
 125.6000        446
 126.0000        406
 126.4000        465
 126.8000        388
 127.2000        402
 127.6000        428
 128.0000        477
 128.4000        450
 128.8000        423
 129.2000        455
 129.6000        440
 130.0000        423

; Data for range 53
_DRIVE = COUPLED
_STEPTIME = 0.2
_STEPSIZE = 0.1
_STEPMODE = C
_START = 40
_THETA = 20
_2THETA = 40
_KHI = 80
_PHI = 0
_X = 0
_Y = -25
_Z = 0
_DETECTOR = 1
; Detector type : Scintillation counter
_HV = 687
_GAIN = 80
_LLD = 0.69
_ULD = 1.866
_DETECTORSLIT = unkn
_AUX1 = 0
_AUX2 = 0
_AUX3 = 0
_TIMESTARTED = 1.03e+004
_TEMP_RATE = -1
_TEMP_DELAY = -1
_KV = 35
_MA = 40
_RANGE_WL = 1.78897
_3DPLANE = 0
_V4_ADDITIONALDETECTOR = 0
_V4_D8_DIBNUM = 1
_V4_DETECTORNAME = "Detector 1"
_V4_TTLDETECTOR = None
_V4_DETECTORTYPE = 1
_V4_DETECTORFLAGS = 524545
_V4_DETECTORHV = 687
_V4_DETECTORGAIN = 80
_V4_DETECTORLLD1 = 0.69
_V4_DETECTORWW1 = 1.176
_V4_DETECTORLLD2 = 0
_V4_DETECTORWW2 = 0
_V4_DETECTORPS = 0
_V4_DETECTORDT = 0
_V4_DETECTORPILEUPTIME = 0
_V4_COUNTERS_MASK = 1
_V4_DRIVES_MASK = 0
_V4_ENCODERS_MASK = 0
_2THETACOUNTS = 1
; 2THETA  Cnt1_D1
  40.0000        120
  40.4000        116
  40.8000        126
  41.2000        124
  41.6000        114
  42.0000        131
  42.4000        129
  42.8000        119
  43.2000        170
  43.6000        188
  44.0000        165
  44.4000        130
  44.8000        113
  45.2000        118
  45.6000        124
  46.0000        128
  46.4000        118
  46.8000        126
  47.2000        136
  47.6000        135
  48.0000        138
  48.4000        138
  48.8000        141
  49.2000        148
  49.6000        125
  50.0000        148
  50.4000        152
  50.8000        203
  51.2000        186
  51.6000        329
  52.0000        590
  52.4000        686
  52.8000        473
  53.2000        240
  53.6000        172
  54.0000        146
  54.4000        166
  54.8000        167
  55.2000        152
  55.6000        179
  56.0000        139
  56.4000        156
  56.8000        160
  57.2000        130
  57.6000        164
  58.0000        165
  58.4000        162
  58.8000        157
  59.2000        172
  59.6000        155
  60.0000        161
  60.4000        187
  60.8000        167
  61.2000        198
  61.6000        163
  62.0000        184
  62.4000        176
  62.8000        183
  63.2000        182
  63.6000        175
  64.0000        159
  64.4000        181
  64.8000        194
  65.2000        207
  65.6000        203
  66.0000        186
  66.4000        199
  66.8000        210
  67.2000        201
  67.6000        205
  68.0000        197
  68.4000        204
  68.8000        220
  69.2000        175
  69.6000        169
  70.0000        210
  70.4000        196
  70.8000        235
  71.2000        188
  71.6000        223
  72.0000        194
  72.4000        216
  72.8000        214
  73.2000        189
  73.6000        181
  74.0000        199
  74.4000        193
  74.8000        216
  75.2000        234
  75.6000        220
  76.0000        242
  76.4000        259
  76.8000        245
  77.2000        227
  77.6000        266
  78.0000        207
  78.4000        219
  78.8000        228
  79.2000        227
  79.6000        224
  80.0000        218
  80.4000        236
  80.8000        224
  81.2000        205
  81.6000        214
  82.0000        234
  82.4000        235
  82.8000        234
  83.2000        230
  83.6000        251
  84.0000        246
  84.4000        231
  84.8000        228
  85.2000        240
  85.6000        250
  86.0000        234
  86.4000        227
  86.8000        245
  87.2000        250
  87.6000        256
  88.0000        253
  88.4000        242
  88.8000        270
  89.2000        276
  89.6000        276
  90.0000        261
  90.4000        277
  90.8000        282
  91.2000        248
  91.6000        254
  92.0000        261
  92.4000        274
  92.8000        280
  93.2000        266
  93.6000        307
  94.0000        240
  94.4000        314
  94.8000        251
  95.2000        286
  95.6000        281
  96.0000        303
  96.4000        274
  96.8000        287
  97.2000        308
  97.6000        292
  98.0000        355
  98.4000        387
  98.8000        507
  99.2000        512
  99.6000        544
 100.0000        450
 100.4000        400
 100.8000        312
 101.2000        324
 101.6000        332
 102.0000        320
 102.4000        308
 102.8000        313
 103.2000        309
 103.6000        339
 104.0000        329
 104.4000        340
 104.8000        324
 105.2000        321
 105.6000        317
 106.0000        355
 106.4000        357
 106.8000        338
 107.2000        348
 107.6000        336
 108.0000        338
 108.4000        338
 108.8000        355
 109.2000        320
 109.6000        378
 110.0000        342
 110.4000        302
 110.8000        341
 111.2000        335
 111.6000        342
 112.0000        336
 112.4000        331
 112.8000        332
 113.2000        348
 113.6000        388
 114.0000        344
 114.4000        352
 114.8000        334
 115.2000        372
 115.6000        354
 116.0000        395
 116.4000        327
 116.8000        348
 117.2000        357
 117.6000        365
 118.0000        369
 118.4000        363
 118.8000        369
 119.2000        387
 119.6000        372
 120.0000        388
 120.4000        370
 120.8000        393
 121.2000        420
 121.6000        381
 122.0000        382
 122.4000        474
 122.8000        499
 123.2000        523
 123.6000        502
 124.0000        470
 124.4000        426
 124.8000        446
 125.2000        434
 125.6000        427
 126.0000        413
 126.4000        399
 126.8000        428
 127.2000        421
 127.6000        372
 128.0000        403
 128.4000        422
 128.8000        434
 129.2000        425
 129.6000        412
 130.0000        394