File: exp_dat/old/exp_2013_11_06/00pct_180L.uxd
; (content of file C:\DIFFDAT1\GIFT\MDL\Seawoong Lee\20131104_MV8\equal_area_maxkhi080_n8_2th40_130_x-25y-25_180L.raw)
_FILEVERSION = 3
_SAMPLE =
_+SAMPLE =
_SITE = Korea
_USER = Admin
_GONIOMETER_CODE = 20
; Goniometer : D8 theta/2theta, stage : Unknown
_SAMPLE_CHANGER_CODE = 0
_ATTACHMENTS_CODE = 0
_GONIOMETER_RADIUS = 300
_FIXED_DIVSLIT = 1
_FIXED_SAMPLESLIT = 0
_SOLLER_SLITS = 2
_FIXED_DETSLIT = 0.1
_MONOCHROMATOR = 0
; Incident beam monochromator : None
_SOLLER_SLITS_2 = 2
_THIN_FILM = N
_BETA_FILTER = Y
_FIXED_ANTISLIT = 0.6
_ANALYZER_CODE = 0
; Received beam analyzer : None
_DATEMEASURED = "06-Nov-2013 06:37:09"
_WL_UNIT = A
_WL1 = 1.78897
_WL2 = 1.79285
_WL3 = 1.62079
_WLRATIO = 0.5
_ANODE = Co
_V4_INF_CREATOR = XRDWizard
_V4_INF_CREATOR_VERSION = V2.9.0.22
_V4_INF_WIZARD_VERSION = V2.9.0.22
_V4_INF_WIZARD_ADDINS = V2.9.0.22
_V4_INF_WIZARD_DOCTYPE = XRD
_V4_INF_OSUSER = Postech
_V4_INF_USER = Admin
_V4_INF_SITE = Korea

; Data for range 1
_DRIVE = COUPLED
_STEPTIME = 0.2
_STEPSIZE = 0.1
_STEPMODE = C
_START = 40
_THETA = 20
_2THETA = 40
_KHI = 0
_PHI = 0
_X = -25
_Y = -25
_Z = 0
_DETECTOR = 1
; Detector type : Scintillation counter
_HV = 687
_GAIN = 80
_LLD = 0.69
_ULD = 1.866
_DETECTORSLIT = unkn
_AUX1 = 0
_AUX2 = 0
_AUX3 = 0
_TIMESTARTED = 28
_TEMP_RATE = -1
_TEMP_DELAY = -1
_KV = 35
_MA = 40
_RANGE_WL = 1.78897
_3DPLANE = 0
_V4_ADDITIONALDETECTOR = 0
_V4_D8_DIBNUM = 1
_V4_DETECTORNAME = "Detector 1"
_V4_TTLDETECTOR = None
_V4_DETECTORTYPE = 1
_V4_DETECTORFLAGS = 524545
_V4_DETECTORHV = 687
_V4_DETECTORGAIN = 80
_V4_DETECTORLLD1 = 0.69
_V4_DETECTORWW1 = 1.176
_V4_DETECTORLLD2 = 0
_V4_DETECTORWW2 = 0
_V4_DETECTORPS = 0
_V4_DETECTORDT = 0
_V4_DETECTORPILEUPTIME = 0
_V4_COUNTERS_MASK = 1
_V4_DRIVES_MASK = 0
_V4_ENCODERS_MASK = 0
_2THETACOUNTS = 1
; 2THETA  Cnt1_D1
  40.0000        516
  40.4000        551
  40.8000        494
  41.2000        542
  41.6000        525
  42.0000        521
  42.4000        528
  42.8000        517
  43.2000        538
  43.6000        504
  44.0000        508
  44.4000        480
  44.8000        541
  45.2000        489
  45.6000        538
  46.0000        522
  46.4000        526
  46.8000        527
  47.2000        539
  47.6000        507
  48.0000        528
  48.4000        520
  48.8000        574
  49.2000        524
  49.6000        510
  50.0000        536
  50.4000        572
  50.8000        656
  51.2000        621
  51.6000        725
  52.0000       1362
  52.4000       1347
  52.8000        618
  53.2000        503
  53.6000        537
  54.0000        492
  54.4000        537
  54.8000        522
  55.2000        557
  55.6000        534
  56.0000        495
  56.4000        503
  56.8000        543
  57.2000        519
  57.6000        538
  58.0000        571
  58.4000        506
  58.8000        537
  59.2000        559
  59.6000        563
  60.0000        548
  60.4000        531
  60.8000        521
  61.2000        523
  61.6000        536
  62.0000        532
  62.4000        508
  62.8000        519
  63.2000        511
  63.6000        506
  64.0000        506
  64.4000        531
  64.8000        512
  65.2000        534
  65.6000        522
  66.0000        525
  66.4000        532
  66.8000        510
  67.2000        485
  67.6000        517
  68.0000        511
  68.4000        524
  68.8000        470
  69.2000        522
  69.6000        468
  70.0000        515
  70.4000        532
  70.8000        526
  71.2000        497
  71.6000        488
  72.0000        573
  72.4000        496
  72.8000        511
  73.2000        487
  73.6000        530
  74.0000        532
  74.4000        531
  74.8000        525
  75.2000        520
  75.6000        506
  76.0000        531
  76.4000        725
  76.8000        993
  77.2000        980
  77.6000        586
  78.0000        520
  78.4000        549
  78.8000        516
  79.2000        525
  79.6000        493
  80.0000        508
  80.4000        531
  80.8000        535
  81.2000        490
  81.6000        485
  82.0000        495
  82.4000        516
  82.8000        519
  83.2000        498
  83.6000        558
  84.0000        514
  84.4000        527
  84.8000        562
  85.2000        483
  85.6000        519
  86.0000        513
  86.4000        482
  86.8000        568
  87.2000        508
  87.6000        497
  88.0000        581
  88.4000        536
  88.8000        600
  89.2000        633
  89.6000        628
  90.0000        591
  90.4000        550
  90.8000        529
  91.2000        482
  91.6000        511
  92.0000        519
  92.4000        547
  92.8000        512
  93.2000        506
  93.6000        506
  94.0000        520
  94.4000        511
  94.8000        511
  95.2000        501
  95.6000        519
  96.0000        514
  96.4000        503
  96.8000        470
  97.2000        527
  97.6000        537
  98.0000        512
  98.4000        512
  98.8000        790
  99.2000       1333
  99.6000       1155
 100.0000        737
 100.4000        541
 100.8000        521
 101.2000        507
 101.6000        515
 102.0000        539
 102.4000        539
 102.8000        535
 103.2000        531
 103.6000        524
 104.0000        479
 104.4000        535
 104.8000        543
 105.2000        496
 105.6000        532
 106.0000        494
 106.4000        514
 106.8000        485
 107.2000        544
 107.6000        469
 108.0000        493
 108.4000        512
 108.8000        511
 109.2000        505
 109.6000        518
 110.0000        477
 110.4000        596
 110.8000        627
 111.2000        578
 111.6000        522
 112.0000        489
 112.4000        520
 112.8000        559
 113.2000        513
 113.6000        493
 114.0000        543
 114.4000        499
 114.8000        529
 115.2000        511
 115.6000        474
 116.0000        529
 116.4000        510
 116.8000        534
 117.2000        509
 117.6000        505
 118.0000        481
 118.4000        495
 118.8000        539
 119.2000        481
 119.6000        541
 120.0000        490
 120.4000        484
 120.8000        544
 121.2000        541
 121.6000        542
 122.0000        524
 122.4000        528
 122.8000        559
 123.2000        602
 123.6000        630
 124.0000        565
 124.4000        497
 124.8000        539
 125.2000        531
 125.6000        510
 126.0000        489
 126.4000        514
 126.8000        502
 127.2000        504
 127.6000        549
 128.0000        525
 128.4000        540
 128.8000        517
 129.2000        534
 129.6000        523
 130.0000        540

; Data for range 2
_DRIVE = COUPLED
_STEPTIME = 0.2
_STEPSIZE = 0.1
_STEPMODE = C
_START = 40
_THETA = 20
_2THETA = 40
_KHI = 10.5
_PHI = 60
_X = -25
_Y = -25
_Z = 0
_DETECTOR = 1
; Detector type : Scintillation counter
_HV = 687
_GAIN = 80
_LLD = 0.69
_ULD = 1.866
_DETECTORSLIT = unkn
_AUX1 = 0
_AUX2 = 0
_AUX3 = 0
_TIMESTARTED = 225
_TEMP_RATE = -1
_TEMP_DELAY = -1
_KV = 35
_MA = 40
_RANGE_WL = 1.78897
_3DPLANE = 0
_V4_ADDITIONALDETECTOR = 0
_V4_D8_DIBNUM = 1
_V4_DETECTORNAME = "Detector 1"
_V4_TTLDETECTOR = None
_V4_DETECTORTYPE = 1
_V4_DETECTORFLAGS = 524545
_V4_DETECTORHV = 687
_V4_DETECTORGAIN = 80
_V4_DETECTORLLD1 = 0.69
_V4_DETECTORWW1 = 1.176
_V4_DETECTORLLD2 = 0
_V4_DETECTORWW2 = 0
_V4_DETECTORPS = 0
_V4_DETECTORDT = 0
_V4_DETECTORPILEUPTIME = 0
_V4_COUNTERS_MASK = 1
_V4_DRIVES_MASK = 0
_V4_ENCODERS_MASK = 0
_2THETACOUNTS = 1
; 2THETA  Cnt1_D1
  40.0000        542
  40.4000        527
  40.8000        547
  41.2000        528
  41.6000        491
  42.0000        522
  42.4000        501
  42.8000        541
  43.2000        523
  43.6000        497
  44.0000        565
  44.4000        529
  44.8000        532
  45.2000        520
  45.6000        495
  46.0000        497
  46.4000        538
  46.8000        541
  47.2000        478
  47.6000        521
  48.0000        549
  48.4000        496
  48.8000        515
  49.2000        497
  49.6000        504
  50.0000        554
  50.4000        561
  50.8000        597
  51.2000        695
  51.6000        780
  52.0000       1243
  52.4000       1350
  52.8000        635
  53.2000        579
  53.6000        538
  54.0000        525
  54.4000        515
  54.8000        563
  55.2000        565
  55.6000        509
  56.0000        549
  56.4000        541
  56.8000        535
  57.2000        521
  57.6000        506
  58.0000        539
  58.4000        524
  58.8000        551
  59.2000        531
  59.6000        623
  60.0000        536
  60.4000        527
  60.8000        543
  61.2000        530
  61.6000        513
  62.0000        538
  62.4000        504
  62.8000        558
  63.2000        509
  63.6000        543
  64.0000        526
  64.4000        505
  64.8000        513
  65.2000        493
  65.6000        498
  66.0000        523
  66.4000        524
  66.8000        504
  67.2000        499
  67.6000        491
  68.0000        494
  68.4000        517
  68.8000        525
  69.2000        533
  69.6000        519
  70.0000        536
  70.4000        488
  70.8000        539
  71.2000        473
  71.6000        552
  72.0000        509
  72.4000        521
  72.8000        538
  73.2000        536
  73.6000        506
  74.0000        482
  74.4000        471
  74.8000        554
  75.2000        516
  75.6000        511
  76.0000        521
  76.4000        651
  76.8000        865
  77.2000        878
  77.6000        548
  78.0000        521
  78.4000        520
  78.8000        555
  79.2000        548
  79.6000        522
  80.0000        512
  80.4000        497
  80.8000        507
  81.2000        517
  81.6000        475
  82.0000        522
  82.4000        543
  82.8000        538
  83.2000        509
  83.6000        544
  84.0000        520
  84.4000        498
  84.8000        510
  85.2000        485
  85.6000        518
  86.0000        521
  86.4000        510
  86.8000        490
  87.2000        527
  87.6000        562
  88.0000        511
  88.4000        528
  88.8000        564
  89.2000        606
  89.6000        575
  90.0000        481
  90.4000        512
  90.8000        507
  91.2000        449
  91.6000        496
  92.0000        547
  92.4000        483
  92.8000        480
  93.2000        537
  93.6000        549
  94.0000        509
  94.4000        523
  94.8000        485
  95.2000        492
  95.6000        507
  96.0000        486
  96.4000        476
  96.8000        548
  97.2000        511
  97.6000        516
  98.0000        495
  98.4000        531
  98.8000        744
  99.2000        989
  99.6000        958
 100.0000        699
 100.4000        559
 100.8000        528
 101.2000        492
 101.6000        501
 102.0000        517
 102.4000        485
 102.8000        522
 103.2000        489
 103.6000        485
 104.0000        519
 104.4000        464
 104.8000        523
 105.2000        545
 105.6000        518
 106.0000        504
 106.4000        476
 106.8000        511
 107.2000        490
 107.6000        528
 108.0000        506
 108.4000        507
 108.8000        499
 109.2000        504
 109.6000        540
 110.0000        543
 110.4000        516
 110.8000        572
 111.2000        547
 111.6000        542
 112.0000        492
 112.4000        535
 112.8000        496
 113.2000        508
 113.6000        480
 114.0000        497
 114.4000        519
 114.8000        542
 115.2000        515
 115.6000        504
 116.0000        549
 116.4000        504
 116.8000        504
 117.2000        511
 117.6000        518
 118.0000        497
 118.4000        529
 118.8000        535
 119.2000        522
 119.6000        540
 120.0000        490
 120.4000        516
 120.8000        558
 121.2000        506
 121.6000        464
 122.0000        509
 122.4000        504
 122.8000        577
 123.2000        560
 123.6000        647
 124.0000        559
 124.4000        502
 124.8000        525
 125.2000        586
 125.6000        495
 126.0000        509
 126.4000        549
 126.8000        512
 127.2000        523
 127.6000        543
 128.0000        465
 128.4000        490
 128.8000        510
 129.2000        533
 129.6000        533
 130.0000        483

; Data for range 3
_DRIVE = COUPLED
_STEPTIME = 0.2
_STEPSIZE = 0.1
_STEPMODE = C
_START = 40
_THETA = 20
_2THETA = 40
_KHI = 18.3
_PHI = 90
_X = -25
_Y = -25
_Z = 0
_DETECTOR = 1
; Detector type : Scintillation counter
_HV = 687
_GAIN = 80
_LLD = 0.69
_ULD = 1.866
_DETECTORSLIT = unkn
_AUX1 = 0
_AUX2 = 0
_AUX3 = 0
_TIMESTARTED = 422
_TEMP_RATE = -1
_TEMP_DELAY = -1
_KV = 35
_MA = 40
_RANGE_WL = 1.78897
_3DPLANE = 0
_V4_ADDITIONALDETECTOR = 0
_V4_D8_DIBNUM = 1
_V4_DETECTORNAME = "Detector 1"
_V4_TTLDETECTOR = None
_V4_DETECTORTYPE = 1
_V4_DETECTORFLAGS = 524545
_V4_DETECTORHV = 687
_V4_DETECTORGAIN = 80
_V4_DETECTORLLD1 = 0.69
_V4_DETECTORWW1 = 1.176
_V4_DETECTORLLD2 = 0
_V4_DETECTORWW2 = 0
_V4_DETECTORPS = 0
_V4_DETECTORDT = 0
_V4_DETECTORPILEUPTIME = 0
_V4_COUNTERS_MASK = 1
_V4_DRIVES_MASK = 0
_V4_ENCODERS_MASK = 0
_2THETACOUNTS = 1
; 2THETA  Cnt1_D1
  40.0000        471
  40.4000        498
  40.8000        560
  41.2000        468
  41.6000        496
  42.0000        494
  42.4000        546
  42.8000        481
  43.2000        510
  43.6000        524
  44.0000        525
  44.4000        532
  44.8000        490
  45.2000        510
  45.6000        508
  46.0000        530
  46.4000        523
  46.8000        538
  47.2000        556
  47.6000        508
  48.0000        500
  48.4000        558
  48.8000        509
  49.2000        505
  49.6000        554
  50.0000        540
  50.4000        647
  50.8000        893
  51.2000        787
  51.6000       1055
  52.0000       2386
  52.4000       2217
  52.8000        754
  53.2000        546
  53.6000        568
  54.0000        546
  54.4000        508
  54.8000        539
  55.2000        529
  55.6000        540
  56.0000        538
  56.4000        510
  56.8000        568
  57.2000        578
  57.6000        581
  58.0000        542
  58.4000        534
  58.8000        519
  59.2000        659
  59.6000        634
  60.0000        593
  60.4000        562
  60.8000        508
  61.2000        537
  61.6000        487
  62.0000        527
  62.4000        550
  62.8000        520
  63.2000        533
  63.6000        513
  64.0000        553
  64.4000        540
  64.8000        501
  65.2000        486
  65.6000        541
  66.0000        556
  66.4000        559
  66.8000        498
  67.2000        522
  67.6000        569
  68.0000        497
  68.4000        506
  68.8000        532
  69.2000        497
  69.6000        533
  70.0000        524
  70.4000        525
  70.8000        523
  71.2000        489
  71.6000        540
  72.0000        507
  72.4000        499
  72.8000        560
  73.2000        542
  73.6000        524
  74.0000        525
  74.4000        526
  74.8000        551
  75.2000        542
  75.6000        536
  76.0000        501
  76.4000        564
  76.8000        636
  77.2000        600
  77.6000        547
  78.0000        496
  78.4000        507
  78.8000        505
  79.2000        525
  79.6000        501
  80.0000        522
  80.4000        515
  80.8000        544
  81.2000        516
  81.6000        495
  82.0000        487
  82.4000        515
  82.8000        527
  83.2000        541
  83.6000        548
  84.0000        475
  84.4000        493
  84.8000        473
  85.2000        513
  85.6000        526
  86.0000        537
  86.4000        493
  86.8000        488
  87.2000        531
  87.6000        512
  88.0000        521
  88.4000        523
  88.8000        548
  89.2000        586
  89.6000        516
  90.0000        469
  90.4000        477
  90.8000        510
  91.2000        521
  91.6000        523
  92.0000        504
  92.4000        521
  92.8000        520
  93.2000        544
  93.6000        493
  94.0000        492
  94.4000        489
  94.8000        481
  95.2000        531
  95.6000        518
  96.0000        508
  96.4000        560
  96.8000        520
  97.2000        499
  97.6000        517
  98.0000        509
  98.4000        516
  98.8000        652
  99.2000        919
  99.6000        992
 100.0000        599
 100.4000        515
 100.8000        487
 101.2000        509
 101.6000        524
 102.0000        530
 102.4000        497
 102.8000        515
 103.2000        506
 103.6000        564
 104.0000        541
 104.4000        494
 104.8000        494
 105.2000        515
 105.6000        519
 106.0000        540
 106.4000        544
 106.8000        517
 107.2000        531
 107.6000        502
 108.0000        496
 108.4000        525
 108.8000        489
 109.2000        493
 109.6000        465
 110.0000        459
 110.4000        564
 110.8000        589
 111.2000        577
 111.6000        503
 112.0000        511
 112.4000        529
 112.8000        530
 113.2000        506
 113.6000        508
 114.0000        470
 114.4000        518
 114.8000        493
 115.2000        498
 115.6000        493
 116.0000        496
 116.4000        473
 116.8000        515
 117.2000        504
 117.6000        507
 118.0000        532
 118.4000        514
 118.8000        541
 119.2000        508
 119.6000        502
 120.0000        552
 120.4000        522
 120.8000        516
 121.2000        540
 121.6000        494
[...]
  72.4000        320
  72.8000        300
  73.2000        306
  73.6000        290
  74.0000        296
  74.4000        288
  74.8000        288
  75.2000        310
  75.6000        362
  76.0000        328
  76.4000        350
  76.8000        389
  77.2000        381
  77.6000        362
  78.0000        359
  78.4000        321
  78.8000        293
  79.2000        276
  79.6000        312
  80.0000        324
  80.4000        284
  80.8000        297
  81.2000        296
  81.6000        283
  82.0000        324
  82.4000        341
  82.8000        315
  83.2000        304
  83.6000        313
  84.0000        328
  84.4000        350
  84.8000        311
  85.2000        332
  85.6000        307
  86.0000        323
  86.4000        305
  86.8000        291
  87.2000        338
  87.6000        387
  88.0000        306
  88.4000        342
  88.8000        346
  89.2000        308
  89.6000        372
  90.0000        348
  90.4000        329
  90.8000        336
  91.2000        289
  91.6000        334
  92.0000        347
  92.4000        352
  92.8000        333
  93.2000        349
  93.6000        330
  94.0000        313
  94.4000        363
  94.8000        329
  95.2000        346
  95.6000        325
  96.0000        333
  96.4000        337
  96.8000        348
  97.2000        336
  97.6000        352
  98.0000        351
  98.4000        369
  98.8000        442
  99.2000        518
  99.6000        576
 100.0000        521
 100.4000        436
 100.8000        336
 101.2000        346
 101.6000        348
 102.0000        306
 102.4000        351
 102.8000        315
 103.2000        346
 103.6000        328
 104.0000        352
 104.4000        344
 104.8000        348
 105.2000        327
 105.6000        342
 106.0000        332
 106.4000        330
 106.8000        331
 107.2000        362
 107.6000        322
 108.0000        361
 108.4000        371
 108.8000        333
 109.2000        349
 109.6000        397
 110.0000        360
 110.4000        346
 110.8000        392
 111.2000        407
 111.6000        331
 112.0000        346
 112.4000        324
 112.8000        346
 113.2000        334
 113.6000        365
 114.0000        319
 114.4000        347
 114.8000        343
 115.2000        329
 115.6000        333
 116.0000        338
 116.4000        333
 116.8000        347
 117.2000        355
 117.6000        334
 118.0000        401
 118.4000        365
 118.8000        342
 119.2000        345
 119.6000        340
 120.0000        382
 120.4000        369
 120.8000        387
 121.2000        381
 121.6000        352
 122.0000        412
 122.4000        403
 122.8000        399
 123.2000        436
 123.6000        457
 124.0000        393
 124.4000        417
 124.8000        388
 125.2000        344
 125.6000        395
 126.0000        350
 126.4000        355
 126.8000        362
 127.2000        381
 127.6000        377
 128.0000        361
 128.4000        335
 128.8000        395
 129.2000        420
 129.6000        373
 130.0000        376

; Data for range 53
_DRIVE = COUPLED
_STEPTIME = 0.2
_STEPSIZE = 0.1
_STEPMODE = C
_START = 40
_THETA = 20
_2THETA = 40
_KHI = 80
_PHI = 0
_X = -25
_Y = -25
_Z = 0
_DETECTOR = 1
; Detector type : Scintillation counter
_HV = 687
_GAIN = 80
_LLD = 0.69
_ULD = 1.866
_DETECTORSLIT = unkn
_AUX1 = 0
_AUX2 = 0
_AUX3 = 0
_TIMESTARTED = 1.03e+004
_TEMP_RATE = -1
_TEMP_DELAY = -1
_KV = 35
_MA = 40
_RANGE_WL = 1.78897
_3DPLANE = 0
_V4_ADDITIONALDETECTOR = 0
_V4_D8_DIBNUM = 1
_V4_DETECTORNAME = "Detector 1"
_V4_TTLDETECTOR = None
_V4_DETECTORTYPE = 1
_V4_DETECTORFLAGS = 524545
_V4_DETECTORHV = 687
_V4_DETECTORGAIN = 80
_V4_DETECTORLLD1 = 0.69
_V4_DETECTORWW1 = 1.176
_V4_DETECTORLLD2 = 0
_V4_DETECTORWW2 = 0
_V4_DETECTORPS = 0
_V4_DETECTORDT = 0
_V4_DETECTORPILEUPTIME = 0
_V4_COUNTERS_MASK = 1
_V4_DRIVES_MASK = 0
_V4_ENCODERS_MASK = 0
_2THETACOUNTS = 1
; 2THETA  Cnt1_D1
  40.0000        161
  40.4000        169
  40.8000        136
  41.2000        172
  41.6000        173
  42.0000        161
  42.4000        167
  42.8000        178
  43.2000        205
  43.6000        214
  44.0000        247
  44.4000        165
  44.8000        178
  45.2000        190
  45.6000        160
  46.0000        187
  46.4000        163
  46.8000        202
  47.2000        166
  47.6000        188
  48.0000        156
  48.4000        203
  48.8000        160
  49.2000        178
  49.6000        176
  50.0000        212
  50.4000        251
  50.8000        332
  51.2000        321
  51.6000        546
  52.0000        772
  52.4000        829
  52.8000        634
  53.2000        377
  53.6000        230
  54.0000        198
  54.4000        216
  54.8000        227
  55.2000        206
  55.6000        191
  56.0000        204
  56.4000        245
  56.8000        204
  57.2000        215
  57.6000        221
  58.0000        244
  58.4000        209
  58.8000        250
  59.2000        216
  59.6000        249
  60.0000        253
  60.4000        226
  60.8000        241
  61.2000        244
  61.6000        205
  62.0000        235
  62.4000        244
  62.8000        234
  63.2000        229
  63.6000        198
  64.0000        222
  64.4000        239
  64.8000        221
  65.2000        240
  65.6000        250
  66.0000        217
  66.4000        221
  66.8000        214
  67.2000        257
  67.6000        266
  68.0000        246
  68.4000        244
  68.8000        264
  69.2000        224
  69.6000        240
  70.0000        251
  70.4000        276
  70.8000        232
  71.2000        250
  71.6000        278
  72.0000        235
  72.4000        268
  72.8000        240
  73.2000        232
  73.6000        279
  74.0000        254
  74.4000        278
  74.8000        292
  75.2000        272
  75.6000        296
  76.0000        277
  76.4000        259
  76.8000        285
  77.2000        336
  77.6000        336
  78.0000        272
  78.4000        283
  78.8000        288
  79.2000        283
  79.6000        293
  80.0000        267
  80.4000        280
  80.8000        272
  81.2000        275
  81.6000        296
  82.0000        308
  82.4000        283
  82.8000        279
  83.2000        297
  83.6000        291
  84.0000        282
  84.4000        289
  84.8000        331
  85.2000        324
  85.6000        302
  86.0000        312
  86.4000        326
  86.8000        327
  87.2000        297
  87.6000        335
  88.0000        318
  88.4000        320
  88.8000        288
  89.2000        366
  89.6000        324
  90.0000        314
  90.4000        295
  90.8000        328
  91.2000        319
  91.6000        338
  92.0000        323
  92.4000        299
  92.8000        310
  93.2000        343
  93.6000        314
  94.0000        334
  94.4000        279
  94.8000        332
  95.2000        326
  95.6000        317
  96.0000        316
  96.4000        341
  96.8000        344
  97.2000        333
  97.6000        340
  98.0000        333
  98.4000        406
  98.8000        455
  99.2000        545
  99.6000        502
 100.0000        531
 100.4000        477
 100.8000        355
 101.2000        386
 101.6000        376
 102.0000        326
 102.4000        343
 102.8000        366
 103.2000        329
 103.6000        343
 104.0000        354
 104.4000        358
 104.8000        312
 105.2000        359
 105.6000        343
 106.0000        320
 106.4000        346
 106.8000        323
 107.2000        379
 107.6000        347
 108.0000        352
 108.4000        360
 108.8000        348
 109.2000        363
 109.6000        347
 110.0000        397
 110.4000        399
 110.8000        383
 111.2000        365
 111.6000        355
 112.0000        374
 112.4000        378
 112.8000        356
 113.2000        354
 113.6000        351
 114.0000        356
 114.4000        408
 114.8000        362
 115.2000        371
 115.6000        383
 116.0000        370
 116.4000        352
 116.8000        346
 117.2000        361
 117.6000        337
 118.0000        378
 118.4000        357
 118.8000        373
 119.2000        422
 119.6000        374
 120.0000        361
 120.4000        335
 120.8000        375
 121.2000        376
 121.6000        390
 122.0000        391
 122.4000        395
 122.8000        454
 123.2000        507
 123.6000        560
 124.0000        490
 124.4000        496
 124.8000        429
 125.2000        387
 125.6000        369
 126.0000        367
 126.4000        345
 126.8000        373
 127.2000        367
 127.6000        364
 128.0000        333
 128.4000        373
 128.8000        370
 129.2000        380
 129.6000        384
 130.0000        355