File: exp_dat/old/exp_2013_11_06/02pct_150L.uxd
; (content of file C:\DIFFDAT1\GIFT\MDL\Seawoong Lee\20131104_MV8\equal_area_maxkhi080_n8_2th40_130_x00y00_150L.raw)
_FILEVERSION = 3
_SAMPLE =
_+SAMPLE =
_SITE = Korea
_USER = Admin
_GONIOMETER_CODE = 20
; Goniometer : D8 theta/2theta, stage : Unknown
_SAMPLE_CHANGER_CODE = 0
_ATTACHMENTS_CODE = 0
_GONIOMETER_RADIUS = 300
_FIXED_DIVSLIT = 1
_FIXED_SAMPLESLIT = 0
_SOLLER_SLITS = 2
_FIXED_DETSLIT = 0.1
_MONOCHROMATOR = 0
; Incident beam monochromator : None
_SOLLER_SLITS_2 = 2
_THIN_FILM = N
_BETA_FILTER = Y
_FIXED_ANTISLIT = 0.6
_ANALYZER_CODE = 0
; Received beam analyzer : None
_DATEMEASURED = "06-Nov-2013 00:47:52"
_WL_UNIT = A
_WL1 = 1.78897
_WL2 = 1.79285
_WL3 = 1.62079
_WLRATIO = 0.5
_ANODE = Co
_V4_INF_CREATOR = XRDWizard
_V4_INF_CREATOR_VERSION = V2.9.0.22
_V4_INF_WIZARD_VERSION = V2.9.0.22
_V4_INF_WIZARD_ADDINS = V2.9.0.22
_V4_INF_WIZARD_DOCTYPE = XRD
_V4_INF_OSUSER = Postech
_V4_INF_USER = Admin
_V4_INF_SITE = Korea

; Data for range 1
_DRIVE = COUPLED
_STEPTIME = 0.2
_STEPSIZE = 0.1
_STEPMODE = C
_START = 40
_THETA = 20
_2THETA = 40
_KHI = 0
_PHI = 0
_X = 0
_Y = 0
_Z = 0
_DETECTOR = 1
; Detector type : Scintillation counter
_HV = 687
_GAIN = 80
_LLD = 0.69
_ULD = 1.866
_DETECTORSLIT = unkn
_AUX1 = 0
_AUX2 = 0
_AUX3 = 0
_TIMESTARTED = 28
_TEMP_RATE = -1
_TEMP_DELAY = -1
_KV = 35
_MA = 40
_RANGE_WL = 1.78897
_3DPLANE = 0
_V4_ADDITIONALDETECTOR = 0
_V4_D8_DIBNUM = 1
_V4_DETECTORNAME = "Detector 1"
_V4_TTLDETECTOR = None
_V4_DETECTORTYPE = 1
_V4_DETECTORFLAGS = 524545
_V4_DETECTORHV = 687
_V4_DETECTORGAIN = 80
_V4_DETECTORLLD1 = 0.69
_V4_DETECTORWW1 = 1.176
_V4_DETECTORLLD2 = 0
_V4_DETECTORWW2 = 0
_V4_DETECTORPS = 0
_V4_DETECTORDT = 0
_V4_DETECTORPILEUPTIME = 0
_V4_COUNTERS_MASK = 1
_V4_DRIVES_MASK = 0
_V4_ENCODERS_MASK = 0
_2THETACOUNTS = 1
; 2THETA  Cnt1_D1
  40.0000        447
  40.4000        484
  40.8000        508
  41.2000        501
  41.6000        517
  42.0000        479
  42.4000        505
  42.8000        464
  43.2000        523
  43.6000        517
  44.0000        537
  44.4000        503
  44.8000        471
  45.2000        475
  45.6000        515
  46.0000        497
  46.4000        503
  46.8000        530
  47.2000        501
  47.6000        535
  48.0000        509
  48.4000        530
  48.8000        505
  49.2000        527
  49.6000        518
  50.0000        533
  50.4000        527
  50.8000        598
  51.2000        600
  51.6000        720
  52.0000       1321
  52.4000       1659
  52.8000        655
  53.2000        550
  53.6000        534
  54.0000        535
  54.4000        543
  54.8000        512
  55.2000        482
  55.6000        536
  56.0000        511
  56.4000        539
  56.8000        554
  57.2000        523
  57.6000        516
  58.0000        550
  58.4000        501
  58.8000        531
  59.2000        590
  59.6000        594
  60.0000        529
  60.4000        535
  60.8000        490
  61.2000        531
  61.6000        520
  62.0000        477
  62.4000        504
  62.8000        520
  63.2000        533
  63.6000        518
  64.0000        527
  64.4000        506
  64.8000        536
  65.2000        513
  65.6000        499
  66.0000        494
  66.4000        483
  66.8000        497
  67.2000        501
  67.6000        502
  68.0000        520
  68.4000        468
  68.8000        526
  69.2000        508
  69.6000        502
  70.0000        503
  70.4000        481
  70.8000        540
  71.2000        479
  71.6000        533
  72.0000        488
  72.4000        489
  72.8000        496
  73.2000        534
  73.6000        536
  74.0000        511
  74.4000        520
  74.8000        486
  75.2000        480
  75.6000        514
  76.0000        526
  76.4000        624
  76.8000        846
  77.2000        875
  77.6000        572
  78.0000        462
  78.4000        532
  78.8000        512
  79.2000        524
  79.6000        489
  80.0000        515
  80.4000        522
  80.8000        508
  81.2000        533
  81.6000        516
  82.0000        508
  82.4000        539
  82.8000        495
  83.2000        501
  83.6000        498
  84.0000        491
  84.4000        493
  84.8000        496
  85.2000        552
  85.6000        513
  86.0000        505
  86.4000        499
  86.8000        549
  87.2000        514
  87.6000        550
  88.0000        528
  88.4000        533
  88.8000        635
  89.2000        748
  89.6000        680
  90.0000        566
  90.4000        498
  90.8000        520
  91.2000        530
  91.6000        512
  92.0000        538
  92.4000        495
  92.8000        497
  93.2000        507
  93.6000        495
  94.0000        520
  94.4000        500
  94.8000        509
  95.2000        479
  95.6000        504
  96.0000        504
  96.4000        570
  96.8000        458
  97.2000        498
  97.6000        546
  98.0000        534
  98.4000        521
  98.8000        764
  99.2000       1353
  99.6000       1295
 100.0000        749
 100.4000        573
 100.8000        546
 101.2000        518
 101.6000        513
 102.0000        525
 102.4000        515
 102.8000        537
 103.2000        508
 103.6000        524
 104.0000        521
 104.4000        517
 104.8000        499
 105.2000        493
 105.6000        529
 106.0000        511
 106.4000        555
 106.8000        514
 107.2000        515
 107.6000        491
 108.0000        560
 108.4000        501
 108.8000        493
 109.2000        521
 109.6000        542
 110.0000        505
 110.4000        554
 110.8000        629
 111.2000        641
 111.6000        574
 112.0000        511
 112.4000        545
 112.8000        488
 113.2000        483
 113.6000        513
 114.0000        523
 114.4000        523
 114.8000        535
 115.2000        561
 115.6000        519
 116.0000        468
 116.4000        487
 116.8000        471
 117.2000        516
 117.6000        489
 118.0000        520
 118.4000        530
 118.8000        523
 119.2000        533
 119.6000        539
 120.0000        475
 120.4000        493
 120.8000        510
 121.2000        474
 121.6000        486
 122.0000        486
 122.4000        511
 122.8000        548
 123.2000        662
 123.6000        652
 124.0000        557
 124.4000        568
 124.8000        546
 125.2000        521
 125.6000        529
 126.0000        540
 126.4000        471
 126.8000        474
 127.2000        495
 127.6000        538
 128.0000        524
 128.4000        476
 128.8000        515
 129.2000        495
 129.6000        493
 130.0000        523

; Data for range 2
_DRIVE = COUPLED
_STEPTIME = 0.2
_STEPSIZE = 0.1
_STEPMODE = C
_START = 40
_THETA = 20
_2THETA = 40
_KHI = 10.5
_PHI = 60
_X = 0
_Y = 0
_Z = 0
_DETECTOR = 1
; Detector type : Scintillation counter
_HV = 687
_GAIN = 80
_LLD = 0.69
_ULD = 1.866
_DETECTORSLIT = unkn
_AUX1 = 0
_AUX2 = 0
_AUX3 = 0
_TIMESTARTED = 225
_TEMP_RATE = -1
_TEMP_DELAY = -1
_KV = 35
_MA = 40
_RANGE_WL = 1.78897
_3DPLANE = 0
_V4_ADDITIONALDETECTOR = 0
_V4_D8_DIBNUM = 1
_V4_DETECTORNAME = "Detector 1"
_V4_TTLDETECTOR = None
_V4_DETECTORTYPE = 1
_V4_DETECTORFLAGS = 524545
_V4_DETECTORHV = 687
_V4_DETECTORGAIN = 80
_V4_DETECTORLLD1 = 0.69
_V4_DETECTORWW1 = 1.176
_V4_DETECTORLLD2 = 0
_V4_DETECTORWW2 = 0
_V4_DETECTORPS = 0
_V4_DETECTORDT = 0
_V4_DETECTORPILEUPTIME = 0
_V4_COUNTERS_MASK = 1
_V4_DRIVES_MASK = 0
_V4_ENCODERS_MASK = 0
_2THETACOUNTS = 1
; 2THETA  Cnt1_D1
  40.0000        463
  40.4000        493
  40.8000        453
  41.2000        494
  41.6000        474
  42.0000        496
  42.4000        509
  42.8000        481
  43.2000        497
  43.6000        449
  44.0000        517
  44.4000        466
  44.8000        503
  45.2000        493
  45.6000        507
  46.0000        540
  46.4000        513
  46.8000        516
  47.2000        479
  47.6000        534
  48.0000        526
  48.4000        515
  48.8000        536
  49.2000        528
  49.6000        503
  50.0000        539
  50.4000        528
  50.8000        635
  51.2000        672
  51.6000        687
  52.0000       1241
  52.4000       1091
  52.8000        596
  53.2000        505
  53.6000        460
  54.0000        538
  54.4000        536
  54.8000        550
  55.2000        534
  55.6000        535
  56.0000        504
  56.4000        499
  56.8000        537
  57.2000        525
  57.6000        518
  58.0000        536
  58.4000        520
  58.8000        518
  59.2000        564
  59.6000        598
  60.0000        569
  60.4000        576
  60.8000        544
  61.2000        504
  61.6000        526
  62.0000        532
  62.4000        555
  62.8000        563
  63.2000        504
  63.6000        522
  64.0000        530
  64.4000        498
  64.8000        455
  65.2000        499
  65.6000        496
  66.0000        562
  66.4000        513
  66.8000        518
  67.2000        517
  67.6000        485
  68.0000        527
  68.4000        527
  68.8000        563
  69.2000        475
  69.6000        493
  70.0000        518
  70.4000        510
  70.8000        488
  71.2000        536
  71.6000        518
  72.0000        517
  72.4000        521
  72.8000        511
  73.2000        482
  73.6000        482
  74.0000        495
  74.4000        529
  74.8000        482
  75.2000        500
  75.6000        523
  76.0000        545
  76.4000        633
  76.8000        783
  77.2000        712
  77.6000        579
  78.0000        542
  78.4000        508
  78.8000        494
  79.2000        531
  79.6000        514
  80.0000        507
  80.4000        513
  80.8000        513
  81.2000        503
  81.6000        501
  82.0000        485
  82.4000        574
  82.8000        534
  83.2000        513
  83.6000        528
  84.0000        515
  84.4000        542
  84.8000        506
  85.2000        530
  85.6000        500
  86.0000        499
  86.4000        514
  86.8000        507
  87.2000        537
  87.6000        456
  88.0000        483
  88.4000        475
  88.8000        540
  89.2000        610
  89.6000        632
  90.0000        484
  90.4000        509
  90.8000        541
  91.2000        526
  91.6000        507
  92.0000        473
  92.4000        501
  92.8000        512
  93.2000        548
  93.6000        500
  94.0000        524
  94.4000        508
  94.8000        495
  95.2000        485
  95.6000        496
  96.0000        491
  96.4000        448
  96.8000        506
  97.2000        516
  97.6000        515
  98.0000        515
  98.4000        568
  98.8000        745
  99.2000       1016
  99.6000       1011
 100.0000        619
 100.4000        529
 100.8000        551
 101.2000        498
 101.6000        493
 102.0000        473
 102.4000        521
 102.8000        545
 103.2000        505
 103.6000        554
 104.0000        460
 104.4000        487
 104.8000        500
 105.2000        555
 105.6000        517
 106.0000        509
 106.4000        514
 106.8000        528
 107.2000        478
 107.6000        493
 108.0000        510
 108.4000        512
 108.8000        524
 109.2000        509
 109.6000        557
 110.0000        553
 110.4000        507
 110.8000        565
 111.2000        601
 111.6000        560
 112.0000        522
 112.4000        526
 112.8000        495
 113.2000        516
 113.6000        524
 114.0000        485
 114.4000        523
 114.8000        528
 115.2000        502
 115.6000        552
 116.0000        508
 116.4000        492
 116.8000        529
 117.2000        516
 117.6000        492
 118.0000        523
 118.4000        532
 118.8000        542
 119.2000        483
 119.6000        489
 120.0000        494
 120.4000        505
 120.8000        499
 121.2000        521
 121.6000        461
 122.0000        512
 122.4000        515
 122.8000        549
 123.2000        662
 123.6000        623
 124.0000        520
 124.4000        542
 124.8000        502
 125.2000        481
 125.6000        504
 126.0000        494
 126.4000        531
 126.8000        507
 127.2000        526
 127.6000        512
 128.0000        474
 128.4000        557
 128.8000        522
 129.2000        509
 129.6000        472
 130.0000        523

; Data for range 3
_DRIVE = COUPLED
_STEPTIME = 0.2
_STEPSIZE = 0.1
_STEPMODE = C
_START = 40
_THETA = 20
_2THETA = 40
_KHI = 18.3
_PHI = 90
_X = 0
_Y = 0
_Z = 0
_DETECTOR = 1
; Detector type : Scintillation counter
_HV = 687
_GAIN = 80
_LLD = 0.69
_ULD = 1.866
_DETECTORSLIT = unkn
_AUX1 = 0
_AUX2 = 0
_AUX3 = 0
_TIMESTARTED = 422
_TEMP_RATE = -1
_TEMP_DELAY = -1
_KV = 35
_MA = 40
_RANGE_WL = 1.78897
_3DPLANE = 0
_V4_ADDITIONALDETECTOR = 0
_V4_D8_DIBNUM = 1
_V4_DETECTORNAME = "Detector 1"
_V4_TTLDETECTOR = None
_V4_DETECTORTYPE = 1
_V4_DETECTORFLAGS = 524545
_V4_DETECTORHV = 687
_V4_DETECTORGAIN = 80
_V4_DETECTORLLD1 = 0.69
_V4_DETECTORWW1 = 1.176
_V4_DETECTORLLD2 = 0
_V4_DETECTORWW2 = 0
_V4_DETECTORPS = 0
_V4_DETECTORDT = 0
_V4_DETECTORPILEUPTIME = 0
_V4_COUNTERS_MASK = 1
_V4_DRIVES_MASK = 0
_V4_ENCODERS_MASK = 0
_2THETACOUNTS = 1
; 2THETA  Cnt1_D1
  40.0000        467
  40.4000        474
  40.8000        465
  41.2000        469
  41.6000        471
  42.0000        444
  42.4000        493
  42.8000        462
  43.2000        463
  43.6000        472
  44.0000        516
  44.4000        510
  44.8000        460
  45.2000        502
  45.6000        507
  46.0000        495
  46.4000        497
  46.8000        427
  47.2000        535
  47.6000        510
  48.0000        552
  48.4000        487
  48.8000        513
  49.2000        515
  49.6000        512
  50.0000        523
  50.4000        710
  50.8000        983
  51.2000        910
  51.6000       1045
  52.0000       2269
  52.4000       1911
  52.8000        664
  53.2000        549
  53.6000        498
  54.0000        486
  54.4000        556
  54.8000        512
  55.2000        522
  55.6000        527
  56.0000        541
  56.4000        520
  56.8000        474
  57.2000        504
  57.6000        486
  58.0000        553
  58.4000        551
  58.8000        518
  59.2000        598
  59.6000        682
  60.0000        591
  60.4000        540
  60.8000        544
  61.2000        506
  61.6000        551
  62.0000        505
  62.4000        575
  62.8000        522
  63.2000        541
  63.6000        511
  64.0000        520
  64.4000        486
  64.8000        522
  65.2000        504
  65.6000        531
  66.0000        493
  66.4000        515
  66.8000        496
  67.2000        485
  67.6000        530
  68.0000        473
  68.4000        523
  68.8000        497
  69.2000        513
  69.6000        482
  70.0000        487
  70.4000        528
  70.8000        516
  71.2000        495
  71.6000        516
  72.0000        521
  72.4000        520
  72.8000        521
  73.2000        512
  73.6000        500
  74.0000        476
  74.4000        501
  74.8000        474
  75.2000        503
  75.6000        472
  76.0000        498
  76.4000        587
  76.8000        612
  77.2000        557
  77.6000        521
  78.0000        515
  78.4000        545
  78.8000        540
  79.2000        517
  79.6000        530
  80.0000        524
  80.4000        508
  80.8000        506
  81.2000        510
  81.6000        494
  82.0000        535
  82.4000        541
  82.8000        474
  83.2000        480
  83.6000        508
  84.0000        490
  84.4000        496
  84.8000        504
  85.2000        510
  85.6000        493
  86.0000        497
  86.4000        482
  86.8000        537
  87.2000        498
  87.6000        515
  88.0000        492
  88.4000        514
  88.8000        511
  89.2000        587
  89.6000        551
  90.0000        504
  90.4000        532
  90.8000        529
  91.2000        575
  91.6000        491
  92.0000        520
  92.4000        499
  92.8000        513
  93.2000        538
  93.6000        542
  94.0000        504
  94.4000        507
  94.8000        471
  95.2000        474
  95.6000        561
  96.0000        482
  96.4000        514
  96.8000        464
  97.2000        535
  97.6000        508
  98.0000        468
  98.4000        478
  98.8000        663
  99.2000        878
  99.6000        860
 100.0000        629
 100.4000        526
 100.8000        487
 101.2000        556
 101.6000        526
 102.0000        512
 102.4000        542
 102.8000        523
 103.2000        476
 103.6000        478
 104.0000        495
 104.4000        480
 104.8000        509
 105.2000        468
 105.6000        511
 106.0000        496
 106.4000        532
 106.8000        510
 107.2000        498
 107.6000        538
 108.0000        519
 108.4000        536
 108.8000        495
 109.2000        510
 109.6000        519
 110.0000        513
 110.4000        538
 110.8000        569
 111.2000        612
 111.6000        549
 112.0000        514
 112.4000        540
 112.8000        531
 113.2000        527
 113.6000        561
 114.0000        481
 114.4000        535
 114.8000        529
 115.2000        492
 115.6000        531
 116.0000        517
 116.4000        525
 116.8000        518
 117.2000        513
 117.6000        518
 118.0000        509
 118.4000        546
 118.8000        499
 119.2000        538
 119.6000        508
 120.0000        486
 120.4000        495
 120.8000        558
 121.2000        553
 121.6000        540
[...]
  72.4000        224
  72.8000        228
  73.2000        249
  73.6000        295
  74.0000        246
  74.4000        231
  74.8000        288
  75.2000        293
  75.6000        283
  76.0000        277
  76.4000        295
  76.8000        314
  77.2000        354
  77.6000        364
  78.0000        306
  78.4000        259
  78.8000        244
  79.2000        272
  79.6000        264
  80.0000        296
  80.4000        267
  80.8000        258
  81.2000        283
  81.6000        241
  82.0000        289
  82.4000        271
  82.8000        244
  83.2000        259
  83.6000        258
  84.0000        259
  84.4000        259
  84.8000        267
  85.2000        255
  85.6000        260
  86.0000        244
  86.4000        258
  86.8000        283
  87.2000        268
  87.6000        271
  88.0000        257
  88.4000        274
  88.8000        292
  89.2000        280
  89.6000        321
  90.0000        292
  90.4000        244
  90.8000        264
  91.2000        285
  91.6000        283
  92.0000        315
  92.4000        340
  92.8000        338
  93.2000        292
  93.6000        291
  94.0000        278
  94.4000        274
  94.8000        304
  95.2000        261
  95.6000        278
  96.0000        285
  96.4000        245
  96.8000        274
  97.2000        277
  97.6000        273
  98.0000        302
  98.4000        292
  98.8000        383
  99.2000        427
  99.6000        456
 100.0000        374
 100.4000        324
 100.8000        260
 101.2000        294
 101.6000        267
 102.0000        298
 102.4000        259
 102.8000        311
 103.2000        282
 103.6000        284
 104.0000        271
 104.4000        256
 104.8000        292
 105.2000        280
 105.6000        291
 106.0000        296
 106.4000        258
 106.8000        291
 107.2000        304
 107.6000        310
 108.0000        292
 108.4000        305
 108.8000        294
 109.2000        295
 109.6000        297
 110.0000        308
 110.4000        339
 110.8000        338
 111.2000        298
 111.6000        305
 112.0000        309
 112.4000        276
 112.8000        292
 113.2000        337
 113.6000        296
 114.0000        299
 114.4000        294
 114.8000        308
 115.2000        316
 115.6000        293
 116.0000        319
 116.4000        301
 116.8000        317
 117.2000        308
 117.6000        252
 118.0000        326
 118.4000        317
 118.8000        327
 119.2000        283
 119.6000        291
 120.0000        289
 120.4000        323
 120.8000        317
 121.2000        314
 121.6000        323
 122.0000        303
 122.4000        327
 122.8000        334
 123.2000        338
 123.6000        383
 124.0000        348
 124.4000        296
 124.8000        331
 125.2000        357
 125.6000        305
 126.0000        302
 126.4000        328
 126.8000        292
 127.2000        304
 127.6000        331
 128.0000        356
 128.4000        291
 128.8000        301
 129.2000        307
 129.6000        298
 130.0000        314

; Data for range 53
_DRIVE = COUPLED
_STEPTIME = 0.2
_STEPSIZE = 0.1
_STEPMODE = C
_START = 40
_THETA = 20
_2THETA = 40
_KHI = 80
_PHI = 0
_X = 0
_Y = 0
_Z = 0
_DETECTOR = 1
; Detector type : Scintillation counter
_HV = 687
_GAIN = 80
_LLD = 0.69
_ULD = 1.866
_DETECTORSLIT = unkn
_AUX1 = 0
_AUX2 = 0
_AUX3 = 0
_TIMESTARTED = 1.03e+004
_TEMP_RATE = -1
_TEMP_DELAY = -1
_KV = 35
_MA = 40
_RANGE_WL = 1.78897
_3DPLANE = 0
_V4_ADDITIONALDETECTOR = 0
_V4_D8_DIBNUM = 1
_V4_DETECTORNAME = "Detector 1"
_V4_TTLDETECTOR = None
_V4_DETECTORTYPE = 1
_V4_DETECTORFLAGS = 524545
_V4_DETECTORHV = 687
_V4_DETECTORGAIN = 80
_V4_DETECTORLLD1 = 0.69
_V4_DETECTORWW1 = 1.176
_V4_DETECTORLLD2 = 0
_V4_DETECTORWW2 = 0
_V4_DETECTORPS = 0
_V4_DETECTORDT = 0
_V4_DETECTORPILEUPTIME = 0
_V4_COUNTERS_MASK = 1
_V4_DRIVES_MASK = 0
_V4_ENCODERS_MASK = 0
_2THETACOUNTS = 1
; 2THETA  Cnt1_D1
  40.0000        168
  40.4000        185
  40.8000        164
  41.2000        168
  41.6000        192
  42.0000        156
  42.4000        203
  42.8000        222
  43.2000        271
  43.6000        250
  44.0000        193
  44.4000        210
  44.8000        181
  45.2000        182
  45.6000        204
  46.0000        185
  46.4000        207
  46.8000        193
  47.2000        190
  47.6000        194
  48.0000        193
  48.4000        183
  48.8000        211
  49.2000        202
  49.6000        202
  50.0000        203
  50.4000        315
  50.8000        356
  51.2000        344
  51.6000        491
  52.0000        733
  52.4000        786
  52.8000        644
  53.2000        437
  53.6000        250
  54.0000        195
  54.4000        229
  54.8000        193
  55.2000        191
  55.6000        216
  56.0000        196
  56.4000        192
  56.8000        185
  57.2000        215
  57.6000        224
  58.0000        228
  58.4000        215
  58.8000        236
  59.2000        249
  59.6000        234
  60.0000        235
  60.4000        230
  60.8000        229
  61.2000        193
  61.6000        238
  62.0000        214
  62.4000        238
  62.8000        224
  63.2000        217
  63.6000        229
  64.0000        227
  64.4000        224
  64.8000        226
  65.2000        220
  65.6000        220
  66.0000        239
  66.4000        200
  66.8000        232
  67.2000        228
  67.6000        231
  68.0000        228
  68.4000        226
  68.8000        242
  69.2000        237
  69.6000        223
  70.0000        231
  70.4000        264
  70.8000        230
  71.2000        232
  71.6000        240
  72.0000        243
  72.4000        285
  72.8000        237
  73.2000        238
  73.6000        243
  74.0000        253
  74.4000        228
  74.8000        242
  75.2000        274
  75.6000        248
  76.0000        264
  76.4000        302
  76.8000        304
  77.2000        284
  77.6000        302
  78.0000        245
  78.4000        275
  78.8000        247
  79.2000        276
  79.6000        257
  80.0000        257
  80.4000        257
  80.8000        238
  81.2000        256
  81.6000        270
  82.0000        284
  82.4000        271
  82.8000        273
  83.2000        274
  83.6000        257
  84.0000        294
  84.4000        271
  84.8000        252
  85.2000        267
  85.6000        277
  86.0000        257
  86.4000        248
  86.8000        293
  87.2000        246
  87.6000        292
  88.0000        241
  88.4000        266
  88.8000        303
  89.2000        285
  89.6000        328
  90.0000        312
  90.4000        266
  90.8000        283
  91.2000        260
  91.6000        285
  92.0000        263
  92.4000        263
  92.8000        272
  93.2000        286
  93.6000        313
  94.0000        279
  94.4000        312
  94.8000        288
  95.2000        295
  95.6000        257
  96.0000        331
  96.4000        300
  96.8000        280
  97.2000        276
  97.6000        268
  98.0000        310
  98.4000        316
  98.8000        379
  99.2000        474
  99.6000        460
 100.0000        417
 100.4000        350
 100.8000        297
 101.2000        298
 101.6000        260
 102.0000        318
 102.4000        315
 102.8000        305
 103.2000        304
 103.6000        284
 104.0000        333
 104.4000        328
 104.8000        301
 105.2000        304
 105.6000        305
 106.0000        307
 106.4000        322
 106.8000        291
 107.2000        317
 107.6000        300
 108.0000        290
 108.4000        293
 108.8000        296
 109.2000        312
 109.6000        307
 110.0000        348
 110.4000        357
 110.8000        336
 111.2000        322
 111.6000        367
 112.0000        322
 112.4000        313
 112.8000        309
 113.2000        324
 113.6000        320
 114.0000        309
 114.4000        315
 114.8000        318
 115.2000        319
 115.6000        340
 116.0000        298
 116.4000        302
 116.8000        312
 117.2000        303
 117.6000        301
 118.0000        336
 118.4000        367
 118.8000        352
 119.2000        340
 119.6000        331
 120.0000        325
 120.4000        338
 120.8000        312
 121.2000        340
 121.6000        320
 122.0000        301
 122.4000        369
 122.8000        401
 123.2000        404
 123.6000        454
 124.0000        427
 124.4000        386
 124.8000        387
 125.2000        320
 125.6000        324
 126.0000        334
 126.4000        311
 126.8000        304
 127.2000        337
 127.6000        313
 128.0000        291
 128.4000        306
 128.8000        311
 129.2000        300
 129.6000        352
 130.0000        342