File: exp_dat/old/exp_2013_11_06/07pct_050G.uxd
; (content of file C:\DIFFDAT1\GIFT\MDL\Seawoong Lee\20131104_MV8\equal_area_maxkhi080_n8_2th40_130_x25y00_50g.raw)
_FILEVERSION = 3
_SAMPLE =
_+SAMPLE =
_SITE = Korea
_USER = Admin
_GONIOMETER_CODE = 20
; Goniometer : D8 theta/2theta, stage : Unknown
_SAMPLE_CHANGER_CODE = 0
_ATTACHMENTS_CODE = 0
_GONIOMETER_RADIUS = 300
_FIXED_DIVSLIT = 1
_FIXED_SAMPLESLIT = 0
_SOLLER_SLITS = 2
_FIXED_DETSLIT = 0.1
_MONOCHROMATOR = 0
; Incident beam monochromator : None
_SOLLER_SLITS_2 = 2
_THIN_FILM = N
_BETA_FILTER = Y
_FIXED_ANTISLIT = 0.6
_ANALYZER_CODE = 0
; Received beam analyzer : None
_DATEMEASURED = "05-Nov-2013 16:03:59"
_WL_UNIT = A
_WL1 = 1.78897
_WL2 = 1.79285
_WL3 = 1.62079
_WLRATIO = 0.5
_ANODE = Co
_V4_INF_CREATOR = XRDWizard
_V4_INF_CREATOR_VERSION = V2.9.0.22
_V4_INF_WIZARD_VERSION = V2.9.0.22
_V4_INF_WIZARD_ADDINS = V2.9.0.22
_V4_INF_WIZARD_DOCTYPE = XRD
_V4_INF_OSUSER = Postech
_V4_INF_USER = Admin
_V4_INF_SITE = Korea

; Data for range 1
_DRIVE = COUPLED
_STEPTIME = 0.2
_STEPSIZE = 0.1
_STEPMODE = C
_START = 40
_THETA = 20
_2THETA = 40
_KHI = 0
_PHI = 0
_X = 25
_Y = 0
_Z = 0
_DETECTOR = 1
; Detector type : Scintillation counter
_HV = 687
_GAIN = 80
_LLD = 0.69
_ULD = 1.866
_DETECTORSLIT = unkn
_AUX1 = 0
_AUX2 = 0
_AUX3 = 0
_TIMESTARTED = 28
_TEMP_RATE = -1
_TEMP_DELAY = -1
_KV = 35
_MA = 40
_RANGE_WL = 1.78897
_3DPLANE = 0
_V4_ADDITIONALDETECTOR = 0
_V4_D8_DIBNUM = 1
_V4_DETECTORNAME = "Detector 1"
_V4_TTLDETECTOR = None
_V4_DETECTORTYPE = 1
_V4_DETECTORFLAGS = 524545
_V4_DETECTORHV = 687
_V4_DETECTORGAIN = 80
_V4_DETECTORLLD1 = 0.69
_V4_DETECTORWW1 = 1.176
_V4_DETECTORLLD2 = 0
_V4_DETECTORWW2 = 0
_V4_DETECTORPS = 0
_V4_DETECTORDT = 0
_V4_DETECTORPILEUPTIME = 0
_V4_COUNTERS_MASK = 1
_V4_DRIVES_MASK = 0
_V4_ENCODERS_MASK = 0
_2THETACOUNTS = 1
; 2THETA  Cnt1_D1
  40.0000        347
  40.4000        383
  40.8000        376
  41.2000        391
  41.6000        377
  42.0000        413
  42.4000        360
  42.8000        343
  43.2000        409
  43.6000        403
  44.0000        374
  44.4000        413
  44.8000        398
  45.2000        409
  45.6000        368
  46.0000        380
  46.4000        432
  46.8000        370
  47.2000        392
  47.6000        401
  48.0000        408
  48.4000        394
  48.8000        377
  49.2000        399
  49.6000        404
  50.0000        376
  50.4000        400
  50.8000        433
  51.2000        428
  51.6000        578
  52.0000        772
  52.4000        757
  52.8000        503
  53.2000        387
  53.6000        421
  54.0000        418
  54.4000        440
  54.8000        449
  55.2000        473
  55.6000        426
  56.0000        440
  56.4000        463
  56.8000        440
  57.2000        461
  57.6000        417
  58.0000        460
  58.4000        472
  58.8000        463
  59.2000        443
  59.6000        463
  60.0000        486
  60.4000        511
  60.8000        435
  61.2000        424
  61.6000        473
  62.0000        422
  62.4000        464
  62.8000        457
  63.2000        447
  63.6000        489
  64.0000        454
  64.4000        440
  64.8000        446
  65.2000        536
  65.6000        470
  66.0000        471
  66.4000        504
  66.8000        459
  67.2000        471
  67.6000        482
  68.0000        498
  68.4000        507
  68.8000        480
  69.2000        487
  69.6000        472
  70.0000        437
  70.4000        495
  70.8000        459
  71.2000        479
  71.6000        488
  72.0000        487
  72.4000        471
  72.8000        470
  73.2000        503
  73.6000        500
  74.0000        487
  74.4000        491
  74.8000        517
  75.2000        489
  75.6000        519
  76.0000        627
  76.4000        994
  76.8000       1171
  77.2000        978
  77.6000        662
  78.0000        510
  78.4000        502
  78.8000        510
  79.2000        555
  79.6000        499
  80.0000        436
  80.4000        514
  80.8000        463
  81.2000        486
  81.6000        504
  82.0000        537
  82.4000        467
  82.8000        495
  83.2000        488
  83.6000        474
  84.0000        505
  84.4000        492
  84.8000        518
  85.2000        520
  85.6000        490
  86.0000        499
  86.4000        475
  86.8000        506
  87.2000        500
  87.6000        512
  88.0000        533
  88.4000        481
  88.8000        530
  89.2000        524
  89.6000        570
  90.0000        545
  90.4000        554
  90.8000        518
  91.2000        493
  91.6000        547
  92.0000        492
  92.4000        495
  92.8000        521
  93.2000        492
  93.6000        538
  94.0000        485
  94.4000        508
  94.8000        465
  95.2000        553
  95.6000        514
  96.0000        511
  96.4000        514
  96.8000        519
  97.2000        523
  97.6000        543
  98.0000        589
  98.4000        694
  98.8000       1208
  99.2000       1630
  99.6000       1360
 100.0000        865
 100.4000        646
 100.8000        555
 101.2000        535
 101.6000        488
 102.0000        544
 102.4000        468
 102.8000        539
 103.2000        504
 103.6000        507
 104.0000        535
 104.4000        519
 104.8000        471
 105.2000        511
 105.6000        478
 106.0000        515
 106.4000        531
 106.8000        512
 107.2000        503
 107.6000        548
 108.0000        523
 108.4000        480
 108.8000        489
 109.2000        457
 109.6000        515
 110.0000        522
 110.4000        525
 110.8000        524
 111.2000        528
 111.6000        487
 112.0000        490
 112.4000        482
 112.8000        474
 113.2000        526
 113.6000        519
 114.0000        524
 114.4000        527
 114.8000        496
 115.2000        493
 115.6000        467
 116.0000        477
 116.4000        512
 116.8000        514
 117.2000        500
 117.6000        550
 118.0000        518
 118.4000        528
 118.8000        527
 119.2000        519
 119.6000        501
 120.0000        520
 120.4000        502
 120.8000        457
 121.2000        548
 121.6000        514
 122.0000        555
 122.4000        531
 122.8000        534
 123.2000        549
 123.6000        570
 124.0000        522
 124.4000        513
 124.8000        506
 125.2000        551
 125.6000        509
 126.0000        542
 126.4000        489
 126.8000        463
 127.2000        534
 127.6000        436
 128.0000        487
 128.4000        524
 128.8000        530
 129.2000        515
 129.6000        500
 130.0000        501

; Data for range 2
_DRIVE = COUPLED
_STEPTIME = 0.2
_STEPSIZE = 0.1
_STEPMODE = C
_START = 40
_THETA = 20
_2THETA = 40
_KHI = 10.5
_PHI = 60
_X = 25
_Y = 0
_Z = 0
_DETECTOR = 1
; Detector type : Scintillation counter
_HV = 687
_GAIN = 80
_LLD = 0.69
_ULD = 1.866
_DETECTORSLIT = unkn
_AUX1 = 0
_AUX2 = 0
_AUX3 = 0
_TIMESTARTED = 225
_TEMP_RATE = -1
_TEMP_DELAY = -1
_KV = 35
_MA = 40
_RANGE_WL = 1.78897
_3DPLANE = 0
_V4_ADDITIONALDETECTOR = 0
_V4_D8_DIBNUM = 1
_V4_DETECTORNAME = "Detector 1"
_V4_TTLDETECTOR = None
_V4_DETECTORTYPE = 1
_V4_DETECTORFLAGS = 524545
_V4_DETECTORHV = 687
_V4_DETECTORGAIN = 80
_V4_DETECTORLLD1 = 0.69
_V4_DETECTORWW1 = 1.176
_V4_DETECTORLLD2 = 0
_V4_DETECTORWW2 = 0
_V4_DETECTORPS = 0
_V4_DETECTORDT = 0
_V4_DETECTORPILEUPTIME = 0
_V4_COUNTERS_MASK = 1
_V4_DRIVES_MASK = 0
_V4_ENCODERS_MASK = 0
_2THETACOUNTS = 1
; 2THETA  Cnt1_D1
  40.0000        467
  40.4000        489
  40.8000        495
  41.2000        477
  41.6000        514
  42.0000        475
  42.4000        489
  42.8000        552
  43.2000        498
  43.6000        493
  44.0000        467
  44.4000        481
  44.8000        496
  45.2000        521
  45.6000        512
  46.0000        512
  46.4000        542
  46.8000        525
  47.2000        537
  47.6000        509
  48.0000        501
  48.4000        503
  48.8000        526
  49.2000        517
  49.6000        509
  50.0000        502
  50.4000        541
  50.8000        533
  51.2000        573
  51.6000        743
  52.0000       1112
  52.4000       1030
  52.8000        614
  53.2000        548
  53.6000        529
  54.0000        524
  54.4000        518
  54.8000        514
  55.2000        502
  55.6000        504
  56.0000        505
  56.4000        506
  56.8000        503
  57.2000        551
  57.6000        520
  58.0000        526
  58.4000        507
  58.8000        517
  59.2000        543
  59.6000        526
  60.0000        488
  60.4000        481
  60.8000        478
  61.2000        503
  61.6000        508
  62.0000        517
  62.4000        530
  62.8000        505
  63.2000        474
  63.6000        502
  64.0000        523
  64.4000        488
  64.8000        508
  65.2000        522
  65.6000        508
  66.0000        523
  66.4000        531
  66.8000        521
  67.2000        498
  67.6000        473
  68.0000        531
  68.4000        504
  68.8000        478
  69.2000        523
  69.6000        541
  70.0000        501
  70.4000        490
  70.8000        517
  71.2000        550
  71.6000        513
  72.0000        541
  72.4000        519
  72.8000        474
  73.2000        517
  73.6000        492
  74.0000        487
  74.4000        476
  74.8000        472
  75.2000        473
  75.6000        516
  76.0000        496
  76.4000        612
  76.8000        699
  77.2000        644
  77.6000        576
  78.0000        537
  78.4000        507
  78.8000        490
  79.2000        543
  79.6000        503
  80.0000        518
  80.4000        491
  80.8000        508
  81.2000        497
  81.6000        467
  82.0000        505
  82.4000        515
  82.8000        508
  83.2000        455
  83.6000        518
  84.0000        503
  84.4000        459
  84.8000        470
  85.2000        540
  85.6000        488
  86.0000        510
  86.4000        504
  86.8000        554
  87.2000        519
  87.6000        488
  88.0000        487
  88.4000        476
  88.8000        504
  89.2000        561
  89.6000        556
  90.0000        518
  90.4000        487
  90.8000        500
  91.2000        507
  91.6000        506
  92.0000        517
  92.4000        518
  92.8000        472
  93.2000        552
  93.6000        518
  94.0000        496
  94.4000        481
  94.8000        500
  95.2000        498
  95.6000        490
  96.0000        541
  96.4000        518
  96.8000        466
  97.2000        496
  97.6000        511
  98.0000        463
  98.4000        607
  98.8000        783
  99.2000        957
  99.6000        894
 100.0000        637
 100.4000        518
 100.8000        482
 101.2000        501
 101.6000        510
 102.0000        490
 102.4000        498
 102.8000        535
 103.2000        493
 103.6000        491
 104.0000        480
 104.4000        463
 104.8000        461
 105.2000        526
 105.6000        507
 106.0000        529
 106.4000        494
 106.8000        467
 107.2000        497
 107.6000        498
 108.0000        495
 108.4000        516
 108.8000        514
 109.2000        535
 109.6000        513
 110.0000        499
 110.4000        524
 110.8000        505
 111.2000        517
 111.6000        488
 112.0000        485
 112.4000        542
 112.8000        499
 113.2000        485
 113.6000        494
 114.0000        527
 114.4000        529
 114.8000        484
 115.2000        487
 115.6000        510
 116.0000        464
 116.4000        524
 116.8000        486
 117.2000        490
 117.6000        527
 118.0000        495
 118.4000        520
 118.8000        511
 119.2000        539
 119.6000        477
 120.0000        520
 120.4000        499
 120.8000        488
 121.2000        507
 121.6000        498
 122.0000        515
 122.4000        502
 122.8000        495
 123.2000        570
 123.6000        564
 124.0000        532
 124.4000        496
 124.8000        515
 125.2000        500
 125.6000        494
 126.0000        516
 126.4000        535
 126.8000        528
 127.2000        514
 127.6000        486
 128.0000        523
 128.4000        546
 128.8000        464
 129.2000        522
 129.6000        479
 130.0000        500

; Data for range 3
_DRIVE = COUPLED
_STEPTIME = 0.2
_STEPSIZE = 0.1
_STEPMODE = C
_START = 40
_THETA = 20
_2THETA = 40
_KHI = 18.3
_PHI = 90
_X = 25
_Y = 0
_Z = 0
_DETECTOR = 1
; Detector type : Scintillation counter
_HV = 687
_GAIN = 80
_LLD = 0.69
_ULD = 1.866
_DETECTORSLIT = unkn
_AUX1 = 0
_AUX2 = 0
_AUX3 = 0
_TIMESTARTED = 422
_TEMP_RATE = -1
_TEMP_DELAY = -1
_KV = 35
_MA = 40
_RANGE_WL = 1.78897
_3DPLANE = 0
_V4_ADDITIONALDETECTOR = 0
_V4_D8_DIBNUM = 1
_V4_DETECTORNAME = "Detector 1"
_V4_TTLDETECTOR = None
_V4_DETECTORTYPE = 1
_V4_DETECTORFLAGS = 524545
_V4_DETECTORHV = 687
_V4_DETECTORGAIN = 80
_V4_DETECTORLLD1 = 0.69
_V4_DETECTORWW1 = 1.176
_V4_DETECTORLLD2 = 0
_V4_DETECTORWW2 = 0
_V4_DETECTORPS = 0
_V4_DETECTORDT = 0
_V4_DETECTORPILEUPTIME = 0
_V4_COUNTERS_MASK = 1
_V4_DRIVES_MASK = 0
_V4_ENCODERS_MASK = 0
_2THETACOUNTS = 1
; 2THETA  Cnt1_D1
  40.0000        468
  40.4000        421
  40.8000        456
  41.2000        492
  41.6000        486
  42.0000        494
  42.4000        503
  42.8000        473
  43.2000        535
  43.6000        518
  44.0000        464
  44.4000        502
  44.8000        515
  45.2000        499
  45.6000        530
  46.0000        523
  46.4000        489
  46.8000        529
  47.2000        488
  47.6000        478
  48.0000        471
  48.4000        507
  48.8000        513
  49.2000        499
  49.6000        524
  50.0000        549
  50.4000        563
  50.8000        666
  51.2000        769
  51.6000       1270
  52.0000       2231
  52.4000       1968
  52.8000        809
  53.2000        606
  53.6000        564
  54.0000        487
  54.4000        539
  54.8000        535
  55.2000        528
  55.6000        521
  56.0000        512
  56.4000        513
  56.8000        510
  57.2000        504
  57.6000        527
  58.0000        519
  58.4000        529
  58.8000        505
  59.2000        510
  59.6000        530
  60.0000        511
  60.4000        550
  60.8000        512
  61.2000        505
  61.6000        531
  62.0000        520
  62.4000        518
  62.8000        509
  63.2000        534
  63.6000        537
  64.0000        521
  64.4000        518
  64.8000        544
  65.2000        479
  65.6000        496
  66.0000        526
  66.4000        525
  66.8000        505
  67.2000        491
  67.6000        429
  68.0000        509
  68.4000        495
  68.8000        511
  69.2000        511
  69.6000        478
  70.0000        528
  70.4000        478
  70.8000        524
  71.2000        523
  71.6000        515
  72.0000        513
  72.4000        518
  72.8000        494
  73.2000        496
  73.6000        510
  74.0000        516
  74.4000        510
  74.8000        461
  75.2000        514
  75.6000        494
  76.0000        521
  76.4000        516
  76.8000        546
  77.2000        525
  77.6000        514
  78.0000        486
  78.4000        501
  78.8000        521
  79.2000        509
  79.6000        503
  80.0000        516
  80.4000        492
  80.8000        496
  81.2000        518
  81.6000        498
  82.0000        472
  82.4000        487
  82.8000        518
  83.2000        438
  83.6000        496
  84.0000        456
  84.4000        470
  84.8000        473
  85.2000        467
  85.6000        484
  86.0000        467
  86.4000        484
  86.8000        516
  87.2000        484
  87.6000        543
  88.0000        504
  88.4000        520
  88.8000        481
  89.2000        497
  89.6000        521
  90.0000        484
  90.4000        504
  90.8000        514
  91.2000        502
  91.6000        478
  92.0000        488
  92.4000        464
  92.8000        525
  93.2000        497
  93.6000        467
  94.0000        499
  94.4000        524
  94.8000        485
  95.2000        521
  95.6000        491
  96.0000        495
  96.4000        562
  96.8000        531
  97.2000        528
  97.6000        458
  98.0000        533
  98.4000        550
  98.8000        604
  99.2000        728
  99.6000        722
 100.0000        637
 100.4000        535
 100.8000        515
 101.2000        498
 101.6000        466
 102.0000        516
 102.4000        486
 102.8000        536
 103.2000        512
 103.6000        507
 104.0000        500
 104.4000        528
 104.8000        513
 105.2000        518
 105.6000        484
 106.0000        489
 106.4000        492
 106.8000        567
 107.2000        503
 107.6000        515
 108.0000        520
 108.4000        474
 108.8000        500
 109.2000        518
 109.6000        512
 110.0000        483
 110.4000        526
 110.8000        528
 111.2000        527
 111.6000        524
 112.0000        506
 112.4000        515
 112.8000        503
 113.2000        494
 113.6000        491
 114.0000        465
 114.4000        522
 114.8000        515
 115.2000        513
 115.6000        529
 116.0000        491
 116.4000        471
 116.8000        514
 117.2000        507
 117.6000        531
 118.0000        481
 118.4000        519
 118.8000        529
 119.2000        509
 119.6000        526
 120.0000        486
 120.4000        536
 120.8000        514
 121.2000        482
 121.6000        493
[...]
  72.4000        241
  72.8000        219
  73.2000        222
  73.6000        203
  74.0000        216
  74.4000        265
  74.8000        278
  75.2000        299
  75.6000        241
  76.0000        237
  76.4000        272
  76.8000        321
  77.2000        308
  77.6000        262
  78.0000        260
  78.4000        232
  78.8000        219
  79.2000        259
  79.6000        252
  80.0000        224
  80.4000        214
  80.8000        237
  81.2000        234
  81.6000        225
  82.0000        206
  82.4000        250
  82.8000        247
  83.2000        239
  83.6000        265
  84.0000        262
  84.4000        243
  84.8000        263
  85.2000        252
  85.6000        250
  86.0000        276
  86.4000        234
  86.8000        232
  87.2000        240
  87.6000        252
  88.0000        247
  88.4000        241
  88.8000        235
  89.2000        257
  89.6000        265
  90.0000        217
  90.4000        245
  90.8000        250
  91.2000        265
  91.6000        259
  92.0000        317
  92.4000        344
  92.8000        306
  93.2000        290
  93.6000        267
  94.0000        283
  94.4000        249
  94.8000        255
  95.2000        267
  95.6000        309
  96.0000        287
  96.4000        277
  96.8000        287
  97.2000        260
  97.6000        313
  98.0000        305
  98.4000        313
  98.8000        399
  99.2000        466
  99.6000        446
 100.0000        386
 100.4000        350
 100.8000        307
 101.2000        294
 101.6000        300
 102.0000        299
 102.4000        315
 102.8000        293
 103.2000        287
 103.6000        272
 104.0000        287
 104.4000        299
 104.8000        287
 105.2000        282
 105.6000        302
 106.0000        277
 106.4000        319
 106.8000        305
 107.2000        266
 107.6000        294
 108.0000        296
 108.4000        337
 108.8000        295
 109.2000        310
 109.6000        288
 110.0000        321
 110.4000        306
 110.8000        350
 111.2000        290
 111.6000        328
 112.0000        343
 112.4000        303
 112.8000        328
 113.2000        326
 113.6000        307
 114.0000        324
 114.4000        300
 114.8000        318
 115.2000        332
 115.6000        316
 116.0000        295
 116.4000        307
 116.8000        364
 117.2000        343
 117.6000        332
 118.0000        316
 118.4000        330
 118.8000        363
 119.2000        309
 119.6000        302
 120.0000        314
 120.4000        313
 120.8000        326
 121.2000        328
 121.6000        309
 122.0000        334
 122.4000        359
 122.8000        372
 123.2000        400
 123.6000        404
 124.0000        398
 124.4000        331
 124.8000        340
 125.2000        328
 125.6000        301
 126.0000        323
 126.4000        354
 126.8000        334
 127.2000        323
 127.6000        357
 128.0000        309
 128.4000        311
 128.8000        323
 129.2000        293
 129.6000        332
 130.0000        330

; Data for range 53
_DRIVE = COUPLED
_STEPTIME = 0.2
_STEPSIZE = 0.1
_STEPMODE = C
_START = 40
_THETA = 20
_2THETA = 40
_KHI = 80
_PHI = 0
_X = 25
_Y = 0
_Z = 0
_DETECTOR = 1
; Detector type : Scintillation counter
_HV = 687
_GAIN = 80
_LLD = 0.69
_ULD = 1.866
_DETECTORSLIT = unkn
_AUX1 = 0
_AUX2 = 0
_AUX3 = 0
_TIMESTARTED = 1.029e+004
_TEMP_RATE = -1
_TEMP_DELAY = -1
_KV = 35
_MA = 40
_RANGE_WL = 1.78897
_3DPLANE = 0
_V4_ADDITIONALDETECTOR = 0
_V4_D8_DIBNUM = 1
_V4_DETECTORNAME = "Detector 1"
_V4_TTLDETECTOR = None
_V4_DETECTORTYPE = 1
_V4_DETECTORFLAGS = 524545
_V4_DETECTORHV = 687
_V4_DETECTORGAIN = 80
_V4_DETECTORLLD1 = 0.69
_V4_DETECTORWW1 = 1.176
_V4_DETECTORLLD2 = 0
_V4_DETECTORWW2 = 0
_V4_DETECTORPS = 0
_V4_DETECTORDT = 0
_V4_DETECTORPILEUPTIME = 0
_V4_COUNTERS_MASK = 1
_V4_DRIVES_MASK = 0
_V4_ENCODERS_MASK = 0
_2THETACOUNTS = 1
; 2THETA  Cnt1_D1
  40.0000        147
  40.4000        164
  40.8000        153
  41.2000        125
  41.6000        161
  42.0000        152
  42.4000        151
  42.8000        215
  43.2000        253
  43.6000        213
  44.0000        195
  44.4000        159
  44.8000        156
  45.2000        149
  45.6000        136
  46.0000        148
  46.4000        175
  46.8000        164
  47.2000        169
  47.6000        148
  48.0000        160
  48.4000        140
  48.8000        174
  49.2000        144
  49.6000        166
  50.0000        187
  50.4000        225
  50.8000        228
  51.2000        220
  51.6000        284
  52.0000        550
  52.4000        798
  52.8000        676
  53.2000        416
  53.6000        198
  54.0000        184
  54.4000        169
  54.8000        163
  55.2000        176
  55.6000        185
  56.0000        166
  56.4000        163
  56.8000        169
  57.2000        188
  57.6000        178
  58.0000        165
  58.4000        186
  58.8000        175
  59.2000        194
  59.6000        200
  60.0000        169
  60.4000        190
  60.8000        180
  61.2000        168
  61.6000        199
  62.0000        163
  62.4000        157
  62.8000        164
  63.2000        182
  63.6000        189
  64.0000        174
  64.4000        165
  64.8000        203
  65.2000        165
  65.6000        179
  66.0000        189
  66.4000        161
  66.8000        164
  67.2000        205
  67.6000        205
  68.0000        194
  68.4000        159
  68.8000        194
  69.2000        162
  69.6000        184
  70.0000        190
  70.4000        198
  70.8000        182
  71.2000        178
  71.6000        191
  72.0000        205
  72.4000        179
  72.8000        175
  73.2000        162
  73.6000        183
  74.0000        193
  74.4000        208
  74.8000        193
  75.2000        208
  75.6000        177
  76.0000        205
  76.4000        190
  76.8000        216
  77.2000        225
  77.6000        215
  78.0000        224
  78.4000        201
  78.8000        189
  79.2000        177
  79.6000        214
  80.0000        204
  80.4000        180
  80.8000        203
  81.2000        189
  81.6000        203
  82.0000        236
  82.4000        200
  82.8000        171
  83.2000        196
  83.6000        192
  84.0000        213
  84.4000        211
  84.8000        183
  85.2000        196
  85.6000        195
  86.0000        208
  86.4000        232
  86.8000        205
  87.2000        197
  87.6000        218
  88.0000        193
  88.4000        218
  88.8000        204
  89.2000        217
  89.6000        241
  90.0000        198
  90.4000        240
  90.8000        226
  91.2000        190
  91.6000        248
  92.0000        238
  92.4000        214
  92.8000        227
  93.2000        248
  93.6000        229
  94.0000        248
  94.4000        209
  94.8000        241
  95.2000        208
  95.6000        220
  96.0000        240
  96.4000        221
  96.8000        245
  97.2000        225
  97.6000        253
  98.0000        252
  98.4000        290
  98.8000        366
  99.2000        424
  99.6000        427
 100.0000        353
 100.4000        292
 100.8000        271
 101.2000        248
 101.6000        247
 102.0000        234
 102.4000        215
 102.8000        264
 103.2000        237
 103.6000        265
 104.0000        241
 104.4000        268
 104.8000        255
 105.2000        238
 105.6000        254
 106.0000        241
 106.4000        228
 106.8000        265
 107.2000        282
 107.6000        240
 108.0000        281
 108.4000        251
 108.8000        271
 109.2000        282
 109.6000        282
 110.0000        251
 110.4000        295
 110.8000        243
 111.2000        278
 111.6000        300
 112.0000        285
 112.4000        294
 112.8000        272
 113.2000        266
 113.6000        256
 114.0000        290
 114.4000        275
 114.8000        293
 115.2000        286
 115.6000        292
 116.0000        309
 116.4000        273
 116.8000        278
 117.2000        316
 117.6000        256
 118.0000        293
 118.4000        317
 118.8000        290
 119.2000        299
 119.6000        313
 120.0000        291
 120.4000        311
 120.8000        337
 121.2000        320
 121.6000        307
 122.0000        346
 122.4000        336
 122.8000        332
 123.2000        421
 123.6000        419
 124.0000        412
 124.4000        343
 124.8000        339
 125.2000        336
 125.6000        348
 126.0000        332
 126.4000        345
 126.8000        308
 127.2000        307
 127.6000        301
 128.0000        319
 128.4000        330
 128.8000        386
 129.2000        330
 129.6000        356
 130.0000        338